Experiment	Z spectroscopy	
Saved Date	05.02.2020 13:47:10	
User		
X (m)	1.12911E-6	
Y (m)	1.00575E-6	
Z (m)	-269.562E-9	
Z offset (m)	10E-9	
Z sweep distance (m)	35E-9	
Settling time (s)	200E-6	
Integration time (s)	100E-6	
Final Z (m)	N/A	
Start time	05.02.2020 13:46:52	
Filter type	None	
Order		
Cutoff frq		

[DATA]
Z rel (m)	Vert. Deflection (V)	OC D1 Amplitude (m)	OC M1 Freq. Shift (Hz)	Vert. Deflection [bwd] (V)	OC D1 Amplitude [bwd] (m)	OC M1 Freq. Shift [bwd] (Hz)
9.9999999E-9	155.72865E-3	4.8735389E-9	-37.633602E+0	156.83289E-3	4.1319237E-9	-18.549389E+0
9.8627453E-9	155.77799E-3	4.8907292E-9	-23.039675E+0	156.51958E-3	4.0911488E-9	-30.509974E+0
9.7254897E-9	156.18083E-3	4.9110844E-9	-22.579256E+0	156.45345E-3	4.0542569E-9	-40.814877E+0
9.5882351E-9	155.39703E-3	4.9193067E-9	-36.668747E+0	155.73782E-3	4.0116497E-9	-35.477722E+0
9.4509804E-9	155.21240E-3	4.9362581E-9	-36.608509E+0	157.83744E-3	3.9641357E-9	-25.896132E+0
9.3137258E-9	155.98348E-3	4.9410689E-9	-24.557384E+0	156.83188E-3	3.9240149E-9	-32.068699E+0
9.1764703E-9	155.44790E-3	4.9484505E-9	-47.773575E+0	156.26273E-3	3.8801069E-9	-39.574898E+0
9.0392156E-9	156.99260E-3	4.9611546E-9	-35.377014E+0	157.29523E-3	3.8267962E-9	-27.024340E+0
8.9019609E-9	155.85123E-3	4.9673412E-9	-38.443214E+0	156.07351E-3	3.7698191E-9	-20.513290E+0
8.7647063E-9	155.97941E-3	4.9761577E-9	-33.016933E+0	156.50076E-3	3.7144110E-9	-35.992538E+0
8.6274508E-9	156.79830E-3	4.9884310E-9	-39.049000E+0	156.01043E-3	3.6596843E-9	-37.812153E+0
8.4901961E-9	156.64774E-3	4.9900155E-9	-43.484486E+0	156.70216E-3	3.5987551E-9	-20.492697E+0
8.3529414E-9	156.09691E-3	4.9968785E-9	-29.188839E+0	155.64626E-3	3.5344903E-9	-30.501562E+0
8.2156859E-9	156.34511E-3	5.0212137E-9	-33.449207E+0	156.70878E-3	3.4682905E-9	-43.455421E+0
8.0784313E-9	156.75099E-3	5.0279469E-9	-45.968124E+0	157.13958E-3	3.3982814E-9	-39.703445E+0
7.9411766E-9	156.73015E-3	5.0333422E-9	-40.637051E+0	156.52618E-3	3.3308094E-9	-28.726328E+0
7.8039211E-9	156.59791E-3	5.0355049E-9	-24.928833E+0	156.21032E-3	3.2540912E-9	-32.392735E+0
7.6666664E-9	156.03079E-3	5.0351319E-9	-46.312763E+0	156.82220E-3	3.1773457E-9	-38.221375E+0
7.5294118E-9	155.92805E-3	5.0471907E-9	-38.440033E+0	155.94991E-3	3.1071703E-9	-38.198029E+0
7.3921571E-9	156.64266E-3	5.0487117E-9	-34.170509E+0	156.07910E-3	3.0237188E-9	-19.829929E+0
7.2549020E-9	155.91227E-3	5.0543831E-9	-41.961395E+0	156.17880E-3	2.9417127E-9	-36.959351E+0
7.1176469E-9	156.24186E-3	5.0613203E-9	-37.087948E+0	156.46259E-3	2.8560709E-9	-38.884617E+0
6.9803923E-9	156.82781E-3	5.0545257E-9	-41.659046E+0	156.37462E-3	2.7617544E-9	-24.277943E+0
6.8431372E-9	156.73167E-3	5.0585385E-9	-37.823730E+0	156.49720E-3	2.6746061E-9	-33.188385E+0
6.7058821E-9	156.85374E-3	5.0613695E-9	-37.087414E+0	156.44938E-3	2.5667364E-9	-42.693645E+0
6.5686274E-9	156.11979E-3	5.0561213E-9	-49.056892E+0	157.04295E-3	2.4735378E-9	-36.772732E+0
6.4313728E-9	156.88935E-3	5.0627880E-9	-43.595150E+0	156.83593E-3	2.3667397E-9	-27.887989E+0
6.2941177E-9	155.71339E-3	5.0664588E-9	-38.100468E+0	156.88579E-3	2.2617517E-9	-30.296438E+0
6.1568626E-9	155.83801E-3	5.0633946E-9	-50.672554E+0	157.40407E-3	2.1543887E-9	-49.234287E+0
6.0196079E-9	157.07804E-3	5.0695466E-9	-47.933838E+0	156.04401E-3	2.0421322E-9	-36.442219E+0
5.8823528E-9	156.37156E-3	5.0684972E-9	-36.022770E+0	157.28761E-3	1.9266457E-9	-23.631479E+0
5.7450982E-9	156.59434E-3	5.0760156E-9	-53.180214E+0	156.71743E-3	1.8199219E-9	-38.586193E+0
5.6078431E-9	156.34052E-3	5.0714801E-9	-46.313931E+0	156.88273E-3	1.6951143E-9	-36.693020E+0
5.4705880E-9	157.46154E-3	5.0800146E-9	-53.109280E+0	157.31557E-3	1.5715442E-9	-23.653776E+0
5.3333333E-9	156.83441E-3	5.0759250E-9	-51.479202E+0	156.56687E-3	1.4284276E-9	-23.242813E+0
5.1960782E-9	155.94839E-3	5.0719593E-9	-42.055519E+0	157.95237E-3	1.2894282E-9	-28.346769E+0
5.0588236E-9	156.71895E-3	5.0741171E-9	-50.711220E+0	156.68641E-3	1.1377780E-9	-51.627621E+0
4.9215685E-9	156.91325E-3	5.0713767E-9	-48.203125E+0	156.80084E-3	973.83901E-12	-47.687946E+0
4.7843138E-9	157.13501E-3	5.0714530E-9	-42.028084E+0	156.66249E-3	805.22244E-12	-41.649876E+0
4.6470587E-9	156.67216E-3	5.0739715E-9	-55.603195E+0	157.35371E-3	627.45387E-12	-33.847507E+0
4.5098041E-9	156.90257E-3	5.0718980E-9	-50.303452E+0	155.55522E-3	450.11453E-12	-24.708752E+0
4.3725490E-9	155.78511E-3	5.0785633E-9	-46.022652E+0	156.45446E-3	285.34863E-12	-14.633583E+0
4.2352939E-9	156.43667E-3	5.0722719E-9	-55.626514E+0	157.39696E-3	134.71052E-12	-5.7862072E+0
4.0980392E-9	156.45091E-3	5.0780122E-9	-47.790684E+0	156.75659E-3	29.163026E-12	148.51613E+0
3.9607841E-9	156.55924E-3	5.0759037E-9	-45.806114E+0	174.93591E-3	34.338525E-12	133.96829E+0
3.8235295E-9	156.76981E-3	5.0673536E-9	-63.008636E+0	173.40139E-3	46.102455E-12	145.17403E+0
3.6862744E-9	155.75002E-3	5.0661115E-9	-52.246895E+0	173.63077E-3	48.931532E-12	152.58789E+0
3.5490197E-9	157.43001E-3	5.0718740E-9	-53.169384E+0	172.30429E-3	46.426616E-12	152.58789E+0
3.4117646E-9	157.03279E-3	5.0716760E-9	-70.313812E+0	172.54436E-3	33.674518E-12	147.49083E+0
3.2745096E-9	156.93258E-3	5.0592890E-9	-57.385929E+0	172.81087E-3	21.922228E-12	137.29588E+0
3.1372549E-9	156.76016E-3	5.0642877E-9	-56.749912E+0	172.33175E-3	15.674724E-12	118.94416E+0
2.9999998E-9	156.59077E-3	5.0568048E-9	-69.689819E+0	170.66956E-3	34.566371E-12	152.58789E+0
2.8627452E-9	157.67109E-3	5.0749325E-9	-52.088829E+0	171.11206E-3	25.286360E-12	74.352295E+0
2.7254901E-9	156.99768E-3	5.0623066E-9	-63.283520E+0	171.58966E-3	38.220531E-12	124.58598E+0
2.5882354E-9	156.97174E-3	5.0650177E-9	-66.629494E+0	168.99109E-3	53.296662E-12	152.58789E+0
2.4509808E-9	157.21843E-3	5.0601114E-9	-53.815163E+0	168.87970E-3	44.174192E-12	111.57142E+0
2.3137252E-9	156.38478E-3	5.0566751E-9	-68.153778E+0	169.97884E-3	37.216060E-12	75.904938E+0
2.1764706E-9	157.75654E-3	5.0477689E-9	-77.792465E+0	167.92957E-3	23.609906E-12	79.896179E+0
2.0392159E-9	156.92343E-3	5.0413522E-9	-60.752434E+0	172.49909E-3	31.513136E-12	87.577881E+0
1.9019604E-9	157.31761E-3	5.0416822E-9	-67.573158E+0	170.99456E-3	35.542538E-12	127.55588E+0
1.7647057E-9	156.49973E-3	5.0340878E-9	-74.527222E+0	169.94883E-3	18.699032E-12	84.270561E+0
1.6274511E-9	157.24996E-3	5.0341522E-9	-61.382538E+0	168.41277E-3	39.594047E-12	152.58789E+0
1.4901964E-9	156.71183E-3	5.0222395E-9	-70.384506E+0	167.20937E-3	37.414259E-12	110.62810E+0
1.3529409E-9	157.06278E-3	5.0137317E-9	-84.915695E+0	167.57050E-3	12.924981E-12	71.946480E+0
1.2156862E-9	158.55968E-3	5.0183928E-9	-63.525875E+0	165.73231E-3	32.398705E-12	144.39862E+0
1.0784316E-9	157.19859E-3	5.0150128E-9	-74.360802E+0	164.85392E-3	29.113035E-12	148.49782E+0
941.17603E-12	157.29828E-3	5.0062101E-9	-85.946968E+0	165.12859E-3	33.839612E-12	135.89357E+0
803.92137E-12	157.90914E-3	4.9897868E-9	-69.192375E+0	164.94243E-3	24.843816E-12	135.25766E+0
666.66672E-12	157.52715E-3	4.9888178E-9	-76.292450E+0	161.89474E-3	35.419848E-12	152.58789E+0
529.41207E-12	157.07041E-3	4.9851216E-9	-85.598381E+0	161.92271E-3	34.215086E-12	125.06787E+0
392.15653E-12	157.39594E-3	4.9909739E-9	-68.584625E+0	163.15714E-3	48.135607E-12	152.58789E+0
254.90188E-12	157.44172E-3	4.9724460E-9	-77.831650E+0	162.86163E-3	41.596043E-12	151.56866E+0
117.64723E-12	157.15332E-3	4.9560760E-9	-90.278740E+0	161.52954E-3	102.82512E-12	152.58789E+0
-19.608315E-12	157.37253E-3	4.9448428E-9	-67.342552E+0	161.21927E-3	34.536464E-12	94.090393E+0
-156.86297E-12	157.11924E-3	4.9332081E-9	-81.644501E+0	163.43944E-3	51.632140E-12	134.51959E+0
-294.11762E-12	157.80233E-3	4.9125553E-9	-93.170227E+0	162.39980E-3	77.605374E-12	152.58789E+0
-431.37227E-12	157.46613E-3	4.8946447E-9	-83.213905E+0	162.58545E-3	21.795909E-12	118.77565E+0
-568.62781E-12	157.39542E-3	4.8851070E-9	-87.332153E+0	162.65412E-3	93.529080E-12	152.58789E+0
-705.88246E-12	158.10750E-3	4.8584146E-9	-96.818260E+0	161.16841E-3	30.720052E-12	117.41214E+0
-843.13712E-12	157.80538E-3	4.8506572E-9	-81.998543E+0	161.79708E-3	123.26944E-12	152.58789E+0
-980.39177E-12	158.03578E-3	4.8376214E-9	-95.076393E+0	161.74316E-3	27.141933E-12	-7.8246436E+0
-1.1176473E-9	158.08004E-3	4.8220938E-9	-104.49489E+0	170.04241E-3	21.544240E-12	79.484200E+0
-1.2549020E-9	158.95437E-3	4.7977191E-9	-89.292679E+0	168.42702E-3	29.022557E-12	125.82650E+0
-1.3921566E-9	158.59121E-3	4.7769739E-9	-96.130699E+0	169.65586E-3	20.305787E-12	119.59425E+0
-1.5294122E-9	158.35927E-3	4.7582600E-9	-106.08635E+0	169.69860E-3	16.651033E-12	97.101463E+0
-1.6666668E-9	159.35364E-3	4.7382875E-9	-94.014137E+0	165.21098E-3	34.957919E-12	147.34674E+0
-1.8039215E-9	158.19244E-3	4.7140882E-9	-110.42722E+0	164.05894E-3	37.411664E-12	152.58789E+0
-1.9411761E-9	158.33028E-3	4.7113233E-9	-111.61100E+0	165.05432E-3	24.934107E-12	140.35764E+0
-2.0784316E-9	158.09581E-3	4.6829913E-9	-98.778526E+0	164.75932E-3	17.850619E-12	128.12686E+0
-2.2156863E-9	158.77838E-3	4.6545394E-9	-110.80505E+0	163.19376E-3	27.191782E-12	152.58789E+0
-2.3529410E-9	158.57901E-3	4.6296180E-9	-113.45190E+0	162.15616E-3	25.125428E-12	148.51476E+0
-2.4901965E-9	158.06885E-3	4.5904001E-9	-113.04424E+0	163.25176E-3	20.453124E-12	123.03223E+0
-2.6274511E-9	158.75754E-3	4.5786090E-9	-115.08939E+0	162.54322E-3	45.103254E-12	152.58789E+0
-2.7647058E-9	157.60447E-3	4.5455413E-9	-113.12647E+0	163.31381E-3	14.839104E-12	136.27393E+0
-2.9019604E-9	158.07800E-3	4.5221262E-9	-118.87185E+0	163.72986E-3	23.516031E-12	76.100334E+0
-3.0392160E-9	158.03680E-3	4.4892672E-9	-117.52612E+0	163.43333E-3	37.567772E-12	150.55176E+0
-3.1764706E-9	158.75143E-3	4.4537307E-9	-122.78305E+0	163.06967E-3	51.743384E-12	99.958717E+0
-3.3137253E-9	158.70310E-3	4.4146189E-9	-123.89668E+0	162.77008E-3	54.148148E-12	-10.188401E+0
-3.4509808E-9	157.45544E-3	4.3888821E-9	-122.36472E+0	173.45378E-3	14.712941E-12	125.78181E+0
-3.5882355E-9	158.52611E-3	4.3502784E-9	-135.02594E+0	170.52510E-3	27.168349E-12	149.52701E+0
-3.7254901E-9	159.16188E-3	4.3135970E-9	-141.92838E+0	171.40198E-3	17.530769E-12	85.938416E+0
-3.8627448E-9	158.54797E-3	4.2772612E-9	-151.06328E+0	170.94168E-3	42.315970E-12	135.08121E+0
-4.0000003E-9	158.60850E-3	4.2484434E-9	-148.74236E+0	170.43711E-3	28.358023E-12	59.694832E+0
-4.1372550E-9	158.78449E-3	4.2130641E-9	-141.64102E+0	168.68389E-3	46.649396E-12	115.09410E+0
-4.2745096E-9	158.79822E-3	4.1750119E-9	-152.58789E+0	168.47636E-3	68.879458E-12	152.58789E+0
-4.4117652E-9	158.28553E-3	4.1274939E-9	-152.58789E+0	168.25205E-3	57.764921E-12	94.787239E+0
-4.5490198E-9	159.76614E-3	4.0845873E-9	-152.58789E+0	165.33814E-3	45.476269E-12	29.116001E+0
-4.6862745E-9	158.62732E-3	4.0329624E-9	-152.58789E+0	164.33665E-3	42.472446E-12	44.978916E+0
-4.8235291E-9	159.92585E-3	3.9844852E-9	-152.58789E+0	165.77148E-3	49.796944E-12	109.23753E+0
-4.9607847E-9	159.67204E-3	3.9304657E-9	-152.58789E+0	165.98409E-3	41.811932E-12	117.02651E+0
-5.0980384E-9	159.24734E-3	3.8737644E-9	-152.58789E+0	165.91543E-3	35.120237E-12	151.57057E+0
-5.2352940E-9	159.67916E-3	3.8210439E-9	-152.58789E+0	166.60461E-3	15.079047E-12	130.19273E+0
-5.3725495E-9	159.51842E-3	3.7592613E-9	-152.58789E+0	167.36247E-3	25.988945E-12	144.43616E+0
-5.5098033E-9	159.54997E-3	3.6907069E-9	-152.58789E+0	171.36790E-3	13.697800E-12	135.24214E+0
-5.6470588E-9	159.38771E-3	3.6200960E-9	-152.58789E+0	170.34200E-3	13.609620E-12	81.133324E+0
-5.7843144E-9	160.26051E-3	3.5221619E-9	-152.58789E+0	170.67769E-3	26.609073E-12	74.549065E+0
-5.9215681E-9	159.79767E-3	3.4178531E-9	-152.58789E+0	169.18640E-3	18.829027E-12	116.63388E+0
-6.0588237E-9	158.89740E-3	3.3040775E-9	-152.58789E+0	168.65845E-3	20.867520E-12	137.80441E+0
-6.1960792E-9	159.54082E-3	3.1862275E-9	-152.58789E+0	170.87860E-3	12.000553E-12	117.67238E+0
-6.3333330E-9	160.45736E-3	3.0588323E-9	-152.58789E+0	170.02462E-3	19.516480E-12	135.09129E+0
-6.4705885E-9	160.78644E-3	2.9006406E-9	-152.58789E+0	166.89657E-3	14.933688E-12	107.05527E+0
-6.6078440E-9	159.89023E-3	2.7385714E-9	-152.58789E+0	168.40567E-3	23.500162E-12	149.53091E+0
-6.7450978E-9	159.98077E-3	2.5585030E-9	-152.58789E+0	168.54247E-3	11.255963E-12	120.77167E+0
-6.8823534E-9	161.21674E-3	2.3619997E-9	-152.58789E+0	173.60993E-3	11.246882E-12	91.529190E+0
-7.0196071E-9	160.22949E-3	2.1462061E-9	-152.58789E+0	172.56062E-3	19.514777E-12	85.775917E+0
-7.1568627E-9	159.97314E-3	1.9172384E-9	-152.58789E+0	172.66591E-3	14.981846E-12	103.80246E+0
-7.2941182E-9	160.20761E-3	1.6938378E-9	-152.58789E+0	173.29204E-3	17.528642E-12	80.276382E+0
-7.4313720E-9	160.54077E-3	1.4653604E-9	-152.58789E+0	173.08451E-3	11.090566E-12	80.217361E+0
-7.5686275E-9	160.85611E-3	1.2283449E-9	-152.58789E+0	171.85822E-3	8.8807963E-12	22.871016E+0
-7.7058830E-9	160.65471E-3	999.21638E-12	-152.58789E+0	171.12783E-3	14.899285E-12	92.572975E+0
-7.8431368E-9	160.14202E-3	800.66981E-12	3.5017364E+0	171.47726E-3	6.9097423E-12	16.419518E+0
-7.9803923E-9	160.50008E-3	694.57923E-12	118.59358E+0	176.46179E-3	12.555766E-12	22.882368E+0
-8.1176479E-9	160.68318E-3	726.60611E-12	152.58789E+0	181.96768E-3	8.1012965E-12	34.877922E+0
-8.2549017E-9	159.99755E-3	859.21642E-12	-116.97616E+0	180.54047E-3	6.5101973E-12	-21.649834E+0
-8.3921572E-9	161.18978E-3	988.69468E-12	-129.34737E+0	177.05485E-3	6.3681686E-12	37.712830E+0
-8.5294110E-9	161.22080E-3	1.0708167E-9	-151.32512E+0	175.26703E-3	3.2448627E-12	2.2332420E+0
-8.6666665E-9	161.14552E-3	1.0853390E-9	-152.58789E+0	196.67409E-3	5.7909901E-12	-28.846296E+0
-8.8039220E-9	162.01630E-3	1.0392132E-9	-152.58789E+0	197.20815E-3	9.1329505E-12	-35.570606E+0
-8.9411758E-9	161.42018E-3	911.23259E-12	-152.58789E+0	191.67836E-3	4.2573974E-12	-20.217827E+0
-9.0784313E-9	161.29760E-3	725.14750E-12	-152.58789E+0	190.43376E-3	10.007660E-12	-31.131035E+0
-9.2156869E-9	161.52954E-3	505.62243E-12	-152.58789E+0	194.88271E-3	9.8733443E-12	-55.220043E+0
-9.3529406E-9	163.06916E-3	332.73317E-12	7.6443334E+0	191.64276E-3	5.3434943E-12	-47.572552E+0
-9.4901962E-9	162.36216E-3	310.46690E-12	101.45067E+0	188.19073E-3	4.8247435E-12	-61.151199E+0
-9.6274517E-9	162.73600E-3	405.43269E-12	-152.58789E+0	188.49589E-3	4.1098171E-12	-54.701946E+0
-9.7647055E-9	163.35957E-3	362.27382E-12	-152.58789E+0	193.77238E-3	7.9221222E-12	-59.222679E+0
-9.9019610E-9	162.83214E-3	214.67168E-12	-152.58789E+0	188.26751E-3	5.7497705E-12	-41.629978E+0
-10.039217E-9	164.74000E-3	37.772691E-12	-65.808258E+0	184.79767E-3	6.3204351E-12	-89.460144E+0
-10.176470E-9	165.37832E-3	73.556758E-12	-152.58789E+0	185.28189E-3	7.2411474E-12	-78.527458E+0
-10.313726E-9	164.75981E-3	85.638670E-12	-152.58789E+0	181.67165E-3	5.7130676E-12	-40.267799E+0
-10.450980E-9	163.56099E-3	74.022975E-12	-151.57063E+0	181.61266E-3	7.9278190E-12	-67.534027E+0
-10.588235E-9	164.77256E-3	77.758529E-12	-152.58789E+0	195.76822E-3	5.0550033E-12	-66.238167E+0
-10.725491E-9	166.85842E-3	83.164843E-12	-107.30061E+0	198.99902E-3	6.9435512E-12	-81.486626E+0
-10.862744E-9	166.46880E-3	41.556460E-12	34.466984E+0	190.58177E-3	7.9212453E-12	-95.056190E+0
-11.000000E-9	166.74092E-3	32.538430E-12	-3.2041957E+0	210.78898E-3	5.8591612E-12	-69.676811E+0
-11.137256E-9	168.36599E-3	23.226469E-12	70.809967E+0	218.73067E-3	9.7111147E-12	-30.796621E+0
-11.274509E-9	168.19713E-3	33.702499E-12	62.176708E+0	207.62126E-3	8.9454052E-12	-51.866554E+0
-11.411765E-9	172.88056E-3	6.9303834E-12	28.239439E+0	201.04574E-3	5.3642321E-12	-88.029167E+0
-11.549020E-9	179.58476E-3	7.1111151E-12	-6.1340775E+0	230.01963E-3	6.2691029E-12	-67.191620E+0
-11.686274E-9	178.53139E-3	8.3827754E-12	11.635826E+0	247.04793E-3	5.4911995E-12	-67.322968E+0
-11.823530E-9	172.03522E-3	7.2835132E-12	-43.708817E+0	277.01923E-3	6.4369027E-12	-75.290878E+0
-11.960783E-9	174.36726E-3	5.2402123E-12	-5.5418425E+0	278.13670E-3	9.6404299E-12	-102.63081E+0
-12.098039E-9	165.71654E-3	5.6361803E-12	-23.274559E+0	296.62171E-3	9.8629039E-12	-103.65932E+0
-12.235295E-9	157.31099E-3	7.4199613E-12	8.5313253E+0	314.50859E-3	6.0651848E-12	-83.420776E+0
-12.372548E-9	156.16709E-3	7.1662364E-12	4.9703021E+0	315.62552E-3	7.0240411E-12	-91.833672E+0
-12.509804E-9	164.89613E-3	4.3440290E-12	-8.5964184E+0	299.99846E-3	5.1894261E-12	-99.377373E+0
-12.647059E-9	160.20711E-3	5.7884782E-12	-1.0831522E+0	328.57919E-3	7.1091908E-12	-80.471214E+0
-12.784313E-9	151.30921E-3	4.1935843E-12	-32.143837E+0	367.84565E-3	4.6402231E-12	-80.772987E+0
-12.921569E-9	157.17570E-3	4.3227895E-12	986.48453E-3	402.44395E-3	4.1051572E-12	-95.343140E+0
-13.058824E-9	180.53742E-3	7.0544356E-12	-38.775509E+0	383.07595E-3	5.5550369E-12	-81.072060E+0
-13.196078E-9	174.40389E-3	7.0432779E-12	-22.107321E+0	335.29001E-3	7.3069788E-12	-71.912346E+0
-13.333334E-9	162.80924E-3	9.4340291E-12	-27.605972E+0	345.67821E-3	5.8607147E-12	-57.300694E+0
-13.470589E-9	159.06829E-3	5.3098086E-12	-24.974957E+0	345.27335E-3	9.7988648E-12	-63.545113E+0
-13.607843E-9	188.75121E-3	4.4479624E-12	-7.0862589E+0	288.79496E-3	7.6902044E-12	-53.131622E+0
-13.745098E-9	194.65077E-3	5.3627081E-12	-18.805111E+0	242.28415E-3	7.5357099E-12	-67.328934E+0
-13.882352E-9	170.79365E-3	6.2747056E-12	-18.144789E+0	285.38209E-3	4.7026515E-12	-76.744125E+0
-14.019608E-9	148.13945E-3	7.1475330E-12	-11.277227E+0	294.59330E-3	6.8304780E-12	-71.093216E+0
-14.156863E-9	132.63194E-3	5.2270449E-12	-45.272423E+0	212.86774E-3	5.5513931E-12	-87.155373E+0
-14.294117E-9	100.87229E-3	5.3238538E-12	-12.532745E+0	152.32748E-3	5.6682302E-12	-89.001938E+0
-14.431373E-9	77.609763E-3	3.5138611E-12	-26.287518E+0	152.31833E-3	4.8251824E-12	-63.642788E+0
-14.568628E-9	39.159648E-3	7.3593007E-12	-21.388103E+0	138.48725E-3	5.3183369E-12	-89.695442E+0
-14.705882E-9	-43.704223E-3	5.9547900E-12	-35.240250E+0	104.63715E-3	7.9047836E-12	-116.81374E+0
-14.843137E-9	-92.338055E-3	3.6030645E-12	-30.287960E+0	94.972230E-3	6.4657112E-12	-93.201645E+0
-14.980394E-9	-27.337138E-3	3.9836745E-12	-42.068642E+0	60.695395E-3	3.8229381E-12	-83.116798E+0
-15.117646E-9	-14.940389E-3	5.1687717E-12	-26.007639E+0	23.242187E-3	7.5356882E-12	-96.168961E+0
-15.254901E-9	-111.08449E-3	3.6221041E-12	-31.463236E+0	18.163044E-3	5.4202541E-12	-98.206223E+0
-15.392157E-9	-146.25651E-3	4.3746430E-12	-27.901022E+0	-31.272378E-3	6.5473894E-12	-82.052872E+0
-15.529412E-9	-82.456969E-3	4.7370662E-12	-43.598862E+0	-126.07829E-3	5.7981038E-12	-105.40431E+0
-15.666668E-9	-56.075037E-3	7.4892965E-12	-20.697510E+0	-161.07737E-3	6.2806609E-12	-70.532928E+0
-15.803920E-9	-97.633876E-3	5.2087779E-12	-22.306253E+0	-134.20105E-3	4.6743191E-12	-59.691635E+0
-15.941175E-9	-133.96962E-3	8.6368595E-12	-32.252296E+0	-184.63898E-3	5.5634828E-12	-93.101952E+0
-16.078431E-9	-176.82241E-3	4.9143393E-12	-35.077061E+0	-260.66792E-3	5.2607818E-12	-79.551315E+0
-16.215687E-9	-182.73519E-3	9.8784687E-12	-43.195023E+0	-263.08694E-3	5.9208996E-12	-79.902130E+0
-16.352942E-9	-148.90544E-3	4.3688881E-12	-47.052723E+0	-256.45703E-3	6.0595231E-12	-57.160824E+0
-16.490198E-9	-167.70884E-3	8.3514628E-12	-40.680687E+0	-302.55380E-3	4.1763299E-12	-101.24389E+0
-16.627450E-9	-264.94548E-3	8.1484108E-12	-35.213280E+0	-353.96069E-3	5.5914743E-12	-91.553429E+0
-16.764705E-9	-322.13795E-3	4.4728214E-12	-29.485550E+0	-373.81592E-3	3.6113053E-12	-83.471527E+0
-16.901961E-9	-313.37482E-3	4.9697425E-12	-33.438622E+0	-405.21547E-3	4.3646488E-12	-78.362556E+0
-17.039216E-9	-356.29424E-3	5.9405905E-12	-51.022190E+0	-426.90378E-3	6.9295520E-12	-93.635895E+0
-17.176472E-9	-462.99538E-3	7.5609120E-12	-27.795444E+0	-410.62674E-3	5.4345963E-12	-88.722855E+0
-17.313724E-9	-506.13761E-3	3.9539838E-12	-52.054283E+0	-417.17070E-3	10.152637E-12	-70.786865E+0
-17.450979E-9	-502.24817E-3	5.8601422E-12	-43.057404E+0	-473.51074E-3	7.6897429E-12	-70.690712E+0
-17.588235E-9	-528.78875E-3	2.5516358E-12	-39.091274E+0	-515.70284E-3	3.7260893E-12	-84.931198E+0
-17.725490E-9	-575.21260E-3	7.7117895E-12	-55.755314E+0	-524.96850E-3	6.6184046E-12	-87.906349E+0
-17.862746E-9	-583.00728E-3	4.3284625E-12	-56.387138E+0	-566.09446E-3	6.4140286E-12	-87.589813E+0
-18.000001E-9	-603.04207E-3	5.4912502E-12	-74.323593E+0	-607.88828E-3	7.3502385E-12	-97.855522E+0
-18.137253E-9	-640.20741E-3	4.4156150E-12	-57.354790E+0	-599.86722E-3	7.1545096E-12	-86.109924E+0
-18.274509E-9	-631.63602E-3	4.3040458E-12	-88.834961E+0	-623.41917E-3	9.1877643E-12	-67.683746E+0
-18.411765E-9	-637.98219E-3	6.2625430E-12	-88.711273E+0	-705.74188E-3	4.6230120E-12	-82.974739E+0
-18.549020E-9	-700.39213E-3	5.5125652E-12	-65.218742E+0	-768.63402E-3	3.9239055E-12	-76.680107E+0
-18.686276E-9	-757.28911E-3	5.3994803E-12	-79.108078E+0	-764.43887E-3	6.4531605E-12	-70.506226E+0
-18.823531E-9	-732.37610E-3	4.6016880E-12	-85.145638E+0	-805.26477E-3	6.8147436E-12	-103.78844E+0
-18.960783E-9	-722.71985E-3	4.0998147E-12	-75.269341E+0	-885.11503E-3	5.9484431E-12	-93.975471E+0
-19.098039E-9	-771.77024E-3	3.9330076E-12	-69.077065E+0	-897.81797E-3	2.5098300E-12	-74.824394E+0
-19.235294E-9	-836.71826E-3	6.4572384E-12	-69.869812E+0	-887.21412E-3	10.135616E-12	-131.92389E+0
-19.372550E-9	-876.13326E-3	7.3234821E-12	-72.177963E+0	-953.44746E-3	9.3085756E-12	-99.550026E+0
-19.509805E-9	-949.99796E-3	4.8774743E-12	-78.451607E+0	-1.0326544E+0	5.8494724E-12	-60.005096E+0
-19.647057E-9	-999.57985E-3	8.3948942E-12	-61.255562E+0	-1.0483673E+0	4.3104192E-12	-74.190414E+0
-19.784313E-9	-998.22897E-3	6.6855172E-12	-103.23788E+0	-1.0639424E+0	8.7767588E-12	-101.31188E+0
-19.921568E-9	-1.0371408E+0	6.6717777E-12	-75.597885E+0	-1.0880834E+0	3.8624520E-12	-62.993172E+0
-20.058824E-9	-1.1261683E+0	7.1866436E-12	-77.534523E+0	-1.0913070E+0	8.2991973E-12	-82.377388E+0
-20.196076E-9	-1.1255697E+0	4.4851397E-12	-78.599808E+0	-1.1414745E+0	7.2317955E-12	-79.826424E+0
-20.333331E-9	-1.1108719E+0	8.1973534E-12	-108.09711E+0	-1.2111460E+0	5.2647665E-12	-68.298828E+0
-20.470587E-9	-1.1735617E+0	7.6191753E-12	-77.837303E+0	-1.1964340E+0	5.1646630E-12	-95.312019E+0
-20.607843E-9	-1.2463893E+0	5.0381049E-12	-65.262329E+0	-1.1823786E+0	6.4798145E-12	-85.422775E+0
-20.745098E-9	-1.2459854E+0	4.6191826E-12	-61.521927E+0	-1.2860026E+0	7.2115664E-12	-71.188126E+0
-20.882354E-9	-1.2601339E+0	4.3763491E-12	-84.161018E+0	-1.3941528E+0	6.3434371E-12	-46.644459E+0
-21.019606E-9	-1.3063664E+0	10.288798E-12	-98.460190E+0	-1.3654435E+0	5.3177992E-12	-69.176254E+0
-21.156861E-9	-1.3135396E+0	7.4934919E-12	-89.214104E+0	-1.3298452E+0	5.6930988E-12	-56.317856E+0
-21.294117E-9	-1.3263611E+0	6.0290275E-12	-76.623230E+0	-1.3884592E+0	4.6422939E-12	-83.849083E+0
-21.431372E-9	-1.3757212E+0	5.6177836E-12	-83.366760E+0	-1.4759252E+0	7.7883516E-12	-75.426376E+0
-21.568628E-9	-1.3841313E+0	4.6649737E-12	-77.856728E+0	-1.4965872E+0	6.4978457E-12	-51.914810E+0
-21.705880E-9	-1.3796625E+0	2.4246946E-12	-81.809784E+0	-1.5141139E+0	8.0509089E-12	-118.68967E+0
-21.843135E-9	-1.4593358E+0	4.5752221E-12	-95.244568E+0	-1.5516317E+0	4.7408501E-12	-79.444191E+0
-21.980391E-9	-1.5476384E+0	3.3977304E-12	-80.595749E+0	-1.5836655E+0	5.5496293E-12	-75.588165E+0
-22.117646E-9	-1.5330333E+0	5.3655344E-12	-67.568512E+0	-1.6121892E+0	9.0581431E-12	-77.567688E+0
-22.254902E-9	-1.5185924E+0	2.5024520E-12	-82.851273E+0	-1.6427511E+0	8.0242592E-12	-84.421432E+0
-22.392157E-9	-1.6024327E+0	3.4294412E-12	-77.663246E+0	-1.6338949E+0	2.9831638E-12	-65.986275E+0
-22.529409E-9	-1.6769750E+0	4.7027842E-12	-72.047546E+0	-1.6289805E+0	3.8732568E-12	-66.560562E+0
-22.666665E-9	-1.6648707E+0	5.8776443E-12	-79.049500E+0	-1.7105051E+0	3.3210420E-12	-81.786636E+0
-22.803921E-9	-1.6747345E+0	8.4848942E-12	-107.14935E+0	-1.8060812E+0	4.5014526E-12	-82.670372E+0
-22.941176E-9	-1.7362940E+0	8.0184696E-12	-87.586067E+0	-1.8142319E+0	3.1679802E-12	-74.954041E+0
-23.078432E-9	-1.7726496E+0	8.2896676E-12	-87.834053E+0	-1.8204361E+0	6.5017995E-12	-111.64751E+0
-23.215687E-9	-1.8022949E+0	6.3049600E-12	-74.790771E+0	-1.8832855E+0	5.1913669E-12	-74.190147E+0
-23.352939E-9	-1.8366287E+0	3.6176704E-12	-76.253098E+0	-1.9133682E+0	5.1362022E-12	-88.199539E+0
-23.490195E-9	-1.8600520E+0	10.313915E-12	-29.406088E+0	-1.8883566E+0	5.0028376E-12	-92.472031E+0
-23.627450E-9	-1.8772008E+0	7.8739897E-12	-81.244102E+0	-1.9198599E+0	5.8593711E-12	-75.206398E+0
-23.764706E-9	-1.9370600E+0	5.1430106E-12	-97.686844E+0	-2.0012360E+0	11.689125E-12	-52.566170E+0
-23.901961E-9	-1.9842886E+0	4.3492254E-12	-77.184586E+0	-2.0342655E+0	8.6815945E-12	-87.903412E+0
-24.039213E-9	-1.9719508E+0	9.2382907E-12	-87.495941E+0	-2.0732269E+0	6.6312689E-12	-84.057152E+0
-24.176469E-9	-1.9930546E+0	5.3405791E-12	-77.401413E+0	-2.1473668E+0	5.6883118E-12	-47.630116E+0
-24.313724E-9	-2.0922260E+0	3.4686178E-12	-62.831161E+0	-2.1613357E+0	8.2781906E-12	-81.429993E+0
-24.450980E-9	-2.1506639E+0	4.8666357E-12	-78.381325E+0	-2.1208012E+0	7.5307677E-12	-74.915459E+0
-24.588235E-9	-2.1291468E+0	9.1683163E-12	-71.439751E+0	-2.1623845E+0	4.5145341E-12	-63.468388E+0
-24.725491E-9	-2.1536498E+0	7.5819325E-12	-85.043205E+0	-2.2408111E+0	5.5924952E-12	-92.040375E+0
-24.862743E-9	-2.2608118E+0	8.3013717E-12	-90.904861E+0	-2.2705796E+0	6.2194564E-12	-93.310135E+0
-24.999999E-9	-2.3003485E+0	10.141886E-12	-75.141075E+0	-2.3215246E+0	9.9399534E-12	-119.93709E+0
