Experiment	Experiment	
Saved Date	16.03.2020 14:15:09	
User		
f_res (Hz)	294654.420	
Q	1160	
Phase (deg)	-235.90	
Amp/Exc (nm/mV)	0.043191	
Number of points	512	
Fit length	 	

[DATA]
OC M1 Freq. Shift (Hz)	OC M1 Center Freq. (Hz)	OC D1 Amplitude (m)	OC D1 Phase (deg)
-610.00000E+0	294.65687E+3	737.45210E-12	85.994446E+0
-607.61255E+0	294.65687E+3	736.47732E-12	85.702278E+0
-605.22510E+0	294.65687E+3	737.13741E-12	85.288254E+0
-602.83765E+0	294.65687E+3	736.90837E-12	85.027321E+0
-600.45020E+0	294.65687E+3	734.90852E-12	84.472153E+0
-598.06274E+0	294.65687E+3	733.96555E-12	84.264290E+0
-595.67529E+0	294.65687E+3	733.25562E-12	83.853851E+0
-593.28784E+0	294.65687E+3	732.21618E-12	83.591316E+0
-590.90039E+0	294.65687E+3	731.38368E-12	83.127693E+0
-588.51294E+0	294.65687E+3	729.66527E-12	82.817444E+0
-586.12549E+0	294.65687E+3	729.43313E-12	82.486404E+0
-583.73804E+0	294.65687E+3	728.12906E-12	82.188400E+0
-581.35059E+0	294.65687E+3	727.30211E-12	81.888084E+0
-578.96313E+0	294.65687E+3	726.77542E-12	81.504951E+0
-576.57568E+0	294.65687E+3	724.19892E-12	81.176987E+0
-574.18823E+0	294.65687E+3	723.56771E-12	80.822411E+0
-571.80078E+0	294.65687E+3	722.09733E-12	80.616814E+0
-569.41333E+0	294.65687E+3	721.03523E-12	80.392982E+0
-567.02588E+0	294.65687E+3	717.70201E-12	80.158943E+0
-564.63843E+0	294.65687E+3	716.34776E-12	79.864464E+0
-562.25098E+0	294.65687E+3	716.52029E-12	79.474419E+0
-559.86353E+0	294.65687E+3	714.98102E-12	79.457039E+0
-557.47607E+0	294.65687E+3	713.52296E-12	79.199387E+0
-555.08862E+0	294.65687E+3	710.79209E-12	78.840508E+0
-552.70117E+0	294.65687E+3	710.43277E-12	78.708580E+0
-550.31372E+0	294.65687E+3	710.32830E-12	78.504158E+0
-547.92627E+0	294.65687E+3	707.66565E-12	78.328018E+0
-545.53882E+0	294.65687E+3	706.82388E-12	78.102089E+0
-543.15137E+0	294.65687E+3	706.93007E-12	78.013855E+0
-540.76392E+0	294.65687E+3	707.44355E-12	77.798691E+0
-538.37646E+0	294.65687E+3	705.03764E-12	77.614044E+0
-535.98901E+0	294.65687E+3	704.75031E-12	77.389214E+0
-533.60156E+0	294.65687E+3	703.35976E-12	77.306221E+0
-531.21411E+0	294.65687E+3	702.68125E-12	76.959488E+0
-528.82666E+0	294.65687E+3	700.78493E-12	76.895950E+0
-526.43921E+0	294.65687E+3	700.08305E-12	76.768791E+0
-524.05176E+0	294.65687E+3	700.66547E-12	76.782738E+0
-521.66431E+0	294.65687E+3	698.95917E-12	76.436600E+0
-519.27686E+0	294.65687E+3	700.39885E-12	76.364105E+0
-516.88940E+0	294.65687E+3	699.13814E-12	76.167892E+0
-514.50195E+0	294.65687E+3	699.68165E-12	76.034103E+0
-512.11450E+0	294.65687E+3	698.28904E-12	76.044014E+0
-509.72702E+0	294.65687E+3	698.66946E-12	75.670151E+0
-507.33954E+0	294.65687E+3	698.99758E-12	75.597755E+0
-504.95206E+0	294.65687E+3	697.57788E-12	75.354851E+0
-502.56458E+0	294.65687E+3	698.64398E-12	75.235733E+0
-500.17709E+0	294.65687E+3	696.89254E-12	75.163223E+0
-497.78961E+0	294.65687E+3	696.94300E-12	74.941315E+0
-495.40213E+0	294.65687E+3	697.92089E-12	74.776001E+0
-493.01465E+0	294.65687E+3	698.27927E-12	74.719986E+0
-490.62717E+0	294.65687E+3	698.15742E-12	74.640076E+0
-488.23969E+0	294.65687E+3	699.22473E-12	74.444893E+0
-485.85220E+0	294.65687E+3	700.43593E-12	74.333641E+0
-483.46472E+0	294.65687E+3	696.88721E-12	74.189926E+0
-481.07724E+0	294.65687E+3	697.90795E-12	74.124947E+0
-478.68976E+0	294.65687E+3	697.49395E-12	74.092361E+0
-476.30228E+0	294.65687E+3	698.62433E-12	73.873863E+0
-473.91479E+0	294.65687E+3	698.91587E-12	73.734978E+0
-471.52731E+0	294.65687E+3	699.13764E-12	73.658630E+0
-469.13983E+0	294.65687E+3	698.88983E-12	73.381889E+0
-466.75235E+0	294.65687E+3	698.79924E-12	73.466507E+0
-464.36487E+0	294.65687E+3	698.44230E-12	73.296982E+0
-461.97739E+0	294.65687E+3	699.11893E-12	73.209396E+0
-459.58990E+0	294.65687E+3	699.11416E-12	73.315903E+0
-457.20242E+0	294.65687E+3	700.31964E-12	73.320068E+0
-454.81494E+0	294.65687E+3	701.21242E-12	72.999710E+0
-452.42746E+0	294.65687E+3	702.16910E-12	72.955719E+0
-450.03998E+0	294.65687E+3	704.22668E-12	72.947403E+0
-447.65250E+0	294.65687E+3	705.86126E-12	72.834686E+0
-445.26501E+0	294.65687E+3	704.83014E-12	72.786293E+0
-442.87753E+0	294.65687E+3	706.17978E-12	72.713333E+0
-440.49005E+0	294.65687E+3	708.82067E-12	72.522682E+0
-438.10257E+0	294.65687E+3	711.42942E-12	72.707275E+0
-435.71509E+0	294.65687E+3	709.39127E-12	72.432632E+0
-433.32761E+0	294.65687E+3	714.40459E-12	72.256706E+0
-430.94012E+0	294.65687E+3	714.94555E-12	72.355026E+0
-428.55264E+0	294.65687E+3	718.40434E-12	72.009132E+0
-426.16516E+0	294.65687E+3	719.31089E-12	71.992004E+0
-423.77768E+0	294.65687E+3	721.55981E-12	71.583099E+0
-421.39020E+0	294.65687E+3	722.88392E-12	71.789299E+0
-419.00272E+0	294.65687E+3	726.01708E-12	71.493736E+0
-416.61523E+0	294.65687E+3	727.95414E-12	71.348900E+0
-414.22775E+0	294.65687E+3	730.85443E-12	71.083221E+0
-411.84027E+0	294.65687E+3	733.62816E-12	71.046921E+0
-409.45279E+0	294.65687E+3	734.07480E-12	70.948082E+0
-407.06531E+0	294.65687E+3	735.91044E-12	70.862503E+0
-404.67783E+0	294.65687E+3	737.26958E-12	70.527466E+0
-402.29034E+0	294.65687E+3	739.86844E-12	70.448730E+0
-399.90286E+0	294.65687E+3	740.59481E-12	70.137856E+0
-397.51538E+0	294.65687E+3	743.72641E-12	69.840271E+0
-395.12790E+0	294.65687E+3	746.23985E-12	69.681747E+0
-392.74042E+0	294.65687E+3	747.03854E-12	69.525085E+0
-390.35294E+0	294.65687E+3	747.01983E-12	69.431343E+0
-387.96545E+0	294.65687E+3	748.36759E-12	69.133942E+0
-385.57797E+0	294.65687E+3	750.10037E-12	68.914803E+0
-383.19049E+0	294.65687E+3	751.02163E-12	68.660019E+0
-380.80301E+0	294.65687E+3	751.93130E-12	68.652817E+0
-378.41553E+0	294.65687E+3	752.35090E-12	68.356987E+0
-376.02805E+0	294.65687E+3	751.73806E-12	68.423485E+0
-373.64056E+0	294.65687E+3	755.78105E-12	68.161743E+0
-371.25308E+0	294.65687E+3	756.22797E-12	68.197250E+0
-368.86560E+0	294.65687E+3	757.43062E-12	67.915939E+0
-366.47812E+0	294.65687E+3	758.60768E-12	67.811829E+0
-364.09064E+0	294.65687E+3	761.68538E-12	67.631622E+0
-361.70316E+0	294.65687E+3	763.02642E-12	67.615059E+0
-359.31567E+0	294.65687E+3	763.09470E-12	67.330154E+0
-356.92819E+0	294.65687E+3	763.14705E-12	67.317619E+0
-354.54071E+0	294.65687E+3	764.49641E-12	67.123856E+0
-352.15323E+0	294.65687E+3	766.03923E-12	67.036324E+0
-349.76575E+0	294.65687E+3	767.53232E-12	67.051079E+0
-347.37827E+0	294.65687E+3	767.21035E-12	66.784470E+0
-344.99078E+0	294.65687E+3	771.44163E-12	66.882721E+0
-342.60330E+0	294.65687E+3	771.93879E-12	66.859955E+0
-340.21582E+0	294.65687E+3	773.19490E-12	66.748917E+0
-337.82834E+0	294.65687E+3	775.82979E-12	66.451614E+0
-335.44086E+0	294.65687E+3	777.31316E-12	66.456673E+0
-333.05338E+0	294.65687E+3	779.43269E-12	66.737907E+0
-330.66589E+0	294.65687E+3	781.20421E-12	66.476463E+0
-328.27841E+0	294.65687E+3	784.79223E-12	66.429695E+0
-325.89093E+0	294.65687E+3	788.62772E-12	66.397049E+0
-323.50345E+0	294.65687E+3	791.31574E-12	66.361206E+0
-321.11597E+0	294.65687E+3	792.65616E-12	66.128868E+0
-318.72849E+0	294.65687E+3	796.66984E-12	66.252533E+0
-316.34100E+0	294.65687E+3	801.69904E-12	66.015900E+0
-313.95352E+0	294.65687E+3	802.21740E-12	66.276520E+0
-311.56604E+0	294.65687E+3	804.58434E-12	66.090622E+0
-309.17856E+0	294.65687E+3	810.70284E-12	65.953484E+0
-306.79108E+0	294.65687E+3	815.24310E-12	65.913300E+0
-304.40359E+0	294.65687E+3	818.05795E-12	66.004066E+0
-302.01611E+0	294.65687E+3	823.21538E-12	65.898911E+0
-299.62863E+0	294.65687E+3	829.07786E-12	65.745087E+0
-297.24115E+0	294.65687E+3	833.60796E-12	65.650436E+0
-294.85367E+0	294.65687E+3	839.28708E-12	65.571999E+0
-292.46619E+0	294.65687E+3	842.76724E-12	65.668602E+0
-290.07870E+0	294.65687E+3	847.88726E-12	65.476120E+0
-287.69122E+0	294.65687E+3	856.74212E-12	65.362000E+0
-285.30374E+0	294.65687E+3	857.92945E-12	65.277809E+0
-282.91626E+0	294.65687E+3	865.42179E-12	65.149467E+0
-280.52878E+0	294.65687E+3	873.04569E-12	64.816963E+0
-278.14130E+0	294.65687E+3	874.13832E-12	64.617279E+0
-275.75381E+0	294.65687E+3	878.62723E-12	64.355873E+0
-273.36633E+0	294.65687E+3	884.76909E-12	64.322258E+0
-270.97885E+0	294.65687E+3	891.88895E-12	64.148109E+0
-268.59137E+0	294.65687E+3	898.50533E-12	64.135536E+0
-266.20389E+0	294.65687E+3	903.65182E-12	63.640247E+0
-263.81641E+0	294.65687E+3	910.46692E-12	63.397755E+0
-261.42892E+0	294.65687E+3	914.10179E-12	63.061062E+0
-259.04144E+0	294.65687E+3	920.56635E-12	62.956211E+0
-256.65396E+0	294.65687E+3	927.27831E-12	62.628429E+0
-254.26648E+0	294.65687E+3	928.09060E-12	62.438728E+0
-251.87900E+0	294.65687E+3	935.84529E-12	62.069180E+0
-249.49152E+0	294.65687E+3	938.76706E-12	61.799328E+0
-247.10403E+0	294.65687E+3	948.56634E-12	61.602108E+0
-244.71655E+0	294.65687E+3	948.22228E-12	61.390881E+0
-242.32907E+0	294.65687E+3	955.27231E-12	61.014679E+0
-239.94159E+0	294.65687E+3	960.95676E-12	61.065865E+0
-237.55411E+0	294.65687E+3	966.90955E-12	60.696522E+0
-235.16663E+0	294.65687E+3	968.32020E-12	60.281803E+0
-232.77914E+0	294.65687E+3	974.96444E-12	60.343231E+0
-230.39166E+0	294.65687E+3	983.89541E-12	60.126404E+0
-228.00418E+0	294.65687E+3	988.30766E-12	59.895210E+0
-225.61670E+0	294.65687E+3	993.71711E-12	59.546272E+0
-223.22922E+0	294.65687E+3	1.0027662E-9	59.218636E+0
-220.84174E+0	294.65687E+3	1.0007114E-9	59.102200E+0
-218.45425E+0	294.65687E+3	1.0116468E-9	59.000565E+0
-216.06677E+0	294.65687E+3	1.0155413E-9	58.653824E+0
-213.67929E+0	294.65687E+3	1.0231446E-9	58.302723E+0
-211.29181E+0	294.65687E+3	1.0252057E-9	58.251419E+0
-208.90433E+0	294.65687E+3	1.0345791E-9	57.905472E+0
-206.51685E+0	294.65687E+3	1.0428406E-9	57.602016E+0
-204.12936E+0	294.65687E+3	1.0468033E-9	57.328487E+0
-201.74188E+0	294.65687E+3	1.0527617E-9	57.166721E+0
-199.35440E+0	294.65687E+3	1.0609102E-9	56.921265E+0
-196.96692E+0	294.65687E+3	1.0651561E-9	56.658680E+0
-194.57944E+0	294.65687E+3	1.0734819E-9	56.455593E+0
-192.19196E+0	294.65687E+3	1.0819037E-9	56.370232E+0
-189.80447E+0	294.65687E+3	1.0865074E-9	56.096691E+0
-187.41699E+0	294.65687E+3	1.0946781E-9	55.882404E+0
-185.02951E+0	294.65687E+3	1.0900414E-9	55.712803E+0
-182.64203E+0	294.65687E+3	1.1089605E-9	55.430016E+0
-180.25455E+0	294.65687E+3	1.1154554E-9	55.168518E+0
-177.86707E+0	294.65687E+3	1.1264987E-9	54.919193E+0
-175.47958E+0	294.65687E+3	1.1327383E-9	54.774757E+0
-173.09210E+0	294.65687E+3	1.1431084E-9	54.479069E+0
-170.70462E+0	294.65687E+3	1.1514358E-9	54.337814E+0
-168.31714E+0	294.65687E+3	1.1567260E-9	54.268192E+0
-165.92966E+0	294.65687E+3	1.1703726E-9	54.127647E+0
-163.54218E+0	294.65687E+3	1.1766398E-9	53.494534E+0
-161.15469E+0	294.65687E+3	1.1899832E-9	53.351810E+0
-158.76721E+0	294.65687E+3	1.2014227E-9	53.340927E+0
-156.37973E+0	294.65687E+3	1.2139526E-9	52.787708E+0
-153.99225E+0	294.65687E+3	1.2183702E-9	52.748672E+0
-151.60477E+0	294.65687E+3	1.2317177E-9	52.216576E+0
-149.21729E+0	294.65687E+3	1.2480144E-9	52.047871E+0
-146.82980E+0	294.65687E+3	1.2620353E-9	51.724380E+0
-144.44232E+0	294.65687E+3	1.2694313E-9	51.669724E+0
-142.05484E+0	294.65687E+3	1.2821590E-9	51.257332E+0
-139.66736E+0	294.65687E+3	1.2978643E-9	50.870739E+0
-137.27988E+0	294.65687E+3	1.3110274E-9	50.471062E+0
-134.89240E+0	294.65687E+3	1.3296205E-9	49.860882E+0
-132.50491E+0	294.65687E+3	1.3400390E-9	49.660240E+0
-130.11743E+0	294.65687E+3	1.3613795E-9	49.397430E+0
-127.72996E+0	294.65687E+3	1.3764510E-9	48.812008E+0
-125.34248E+0	294.65687E+3	1.3851240E-9	48.462711E+0
-122.95501E+0	294.65687E+3	1.4045333E-9	47.947205E+0
-120.56754E+0	294.65687E+3	1.4197705E-9	47.638195E+0
-118.18006E+0	294.65687E+3	1.4439976E-9	46.854790E+0
-115.79259E+0	294.65687E+3	1.4588122E-9	46.472031E+0
-113.40511E+0	294.65687E+3	1.4739616E-9	45.838306E+0
-111.01764E+0	294.65687E+3	1.4911986E-9	45.364616E+0
-108.63017E+0	294.65687E+3	1.5111022E-9	44.755802E+0
-106.24269E+0	294.65687E+3	1.5234064E-9	44.402641E+0
-103.85522E+0	294.65687E+3	1.5451969E-9	43.414562E+0
-101.46774E+0	294.65687E+3	1.5600429E-9	43.006432E+0
-99.080269E+0	294.65687E+3	1.5873501E-9	42.124508E+0
-96.692795E+0	294.65687E+3	1.5815682E-9	42.200169E+0
-94.305321E+0	294.65687E+3	1.6179554E-9	40.808449E+0
-91.917847E+0	294.65687E+3	1.6314631E-9	40.205769E+0
-89.530373E+0	294.65687E+3	1.6628591E-9	39.569386E+0
-87.142899E+0	294.65687E+3	1.6692761E-9	38.827831E+0
-84.755424E+0	294.65687E+3	1.6932017E-9	37.793758E+0
-82.367950E+0	294.65687E+3	1.6992900E-9	37.692009E+0
-79.980476E+0	294.65687E+3	1.7320855E-9	36.198421E+0
-77.593002E+0	294.65687E+3	1.7438662E-9	35.567421E+0
-75.205528E+0	294.65687E+3	1.7662581E-9	34.524925E+0
-72.818054E+0	294.65687E+3	1.7788818E-9	33.929348E+0
-70.430580E+0	294.65687E+3	1.8033512E-9	32.925293E+0
-68.043106E+0	294.65687E+3	1.8192291E-9	32.022884E+0
-65.655632E+0	294.65687E+3	1.8376485E-9	31.046400E+0
-63.268158E+0	294.65687E+3	1.8562255E-9	30.071739E+0
-60.880684E+0	294.65687E+3	1.8771413E-9	29.164465E+0
-58.493210E+0	294.65687E+3	1.8808926E-9	28.322496E+0
-56.105736E+0	294.65687E+3	1.9070550E-9	27.235685E+0
-53.718262E+0	294.65687E+3	1.9219286E-9	26.044773E+0
-51.330788E+0	294.65687E+3	1.9325088E-9	25.149767E+0
-48.943314E+0	294.65687E+3	1.9542168E-9	24.072233E+0
-46.555840E+0	294.65687E+3	1.9653252E-9	23.052029E+0
-44.168365E+0	294.65687E+3	1.9836173E-9	22.028097E+0
-41.780891E+0	294.65687E+3	1.9923712E-9	21.015232E+0
-39.393417E+0	294.65687E+3	2.0022495E-9	20.769676E+0
-37.005943E+0	294.65687E+3	2.0147399E-9	19.058483E+0
-34.618469E+0	294.65687E+3	2.0217799E-9	17.754662E+0
-32.230995E+0	294.65687E+3	2.0368884E-9	16.789919E+0
-29.843519E+0	294.65687E+3	2.0444280E-9	15.713426E+0
-27.456043E+0	294.65687E+3	2.0606472E-9	14.680783E+0
-25.068567E+0	294.65687E+3	2.0611250E-9	14.059656E+0
-22.681091E+0	294.65687E+3	2.0772710E-9	12.395810E+0
-20.293615E+0	294.65687E+3	2.0929709E-9	11.169540E+0
-17.906139E+0	294.65687E+3	2.0983952E-9	10.124219E+0
-15.518663E+0	294.65687E+3	2.1012587E-9	9.0867262E+0
-13.131187E+0	294.65687E+3	2.1089281E-9	8.0209942E+0
-10.743711E+0	294.65687E+3	2.1147062E-9	6.8049126E+0
-8.3562355E+0	294.65687E+3	2.1285311E-9	5.8118367E+0
-5.9687600E+0	294.65687E+3	2.1337747E-9	4.7015977E+0
-3.5812845E+0	294.65687E+3	2.1310271E-9	3.4414039E+0
-1.1938090E+0	294.65687E+3	2.1365596E-9	2.8217614E+0
1.1936665E+0	294.65687E+3	2.1441671E-9	1.3214394E+0
3.5811419E+0	294.65687E+3	2.1473485E-9	106.49800E-3
5.9686174E+0	294.65687E+3	2.1443134E-9	-1.0091743E+0
8.3560925E+0	294.65687E+3	2.1540436E-9	-2.1452193E+0
10.743568E+0	294.65687E+3	2.1514459E-9	-3.1343617E+0
13.131044E+0	294.65687E+3	2.1558808E-9	-4.4638853E+0
15.518520E+0	294.65687E+3	2.1595554E-9	-5.5581021E+0
17.905996E+0	294.65687E+3	2.1585540E-9	-6.6675563E+0
20.293472E+0	294.65687E+3	2.1495763E-9	-7.8916898E+0
22.680948E+0	294.65687E+3	2.1489743E-9	-9.0351744E+0
25.068424E+0	294.65687E+3	2.1528768E-9	-10.197380E+0
27.455900E+0	294.65687E+3	2.1466322E-9	-11.270652E+0
29.843376E+0	294.65687E+3	2.1469326E-9	-12.566038E+0
32.230850E+0	294.65687E+3	2.1362576E-9	-13.748200E+0
34.618324E+0	294.65687E+3	2.1334230E-9	-15.106399E+0
37.005798E+0	294.65687E+3	2.1264437E-9	-16.100748E+0
39.393272E+0	294.65687E+3	2.1150626E-9	-17.372515E+0
41.780746E+0	294.65687E+3	2.1092195E-9	-18.539822E+0
44.168221E+0	294.65687E+3	2.1004760E-9	-19.588381E+0
46.555695E+0	294.65687E+3	2.0907465E-9	-20.812153E+0
48.943169E+0	294.65687E+3	2.0801130E-9	-21.770315E+0
51.330643E+0	294.65687E+3	2.0624797E-9	-22.809626E+0
53.718117E+0	294.65687E+3	2.0581070E-9	-23.930309E+0
56.105591E+0	294.65687E+3	2.0428481E-9	-25.114019E+0
58.493065E+0	294.65687E+3	2.0274804E-9	-26.124712E+0
60.880539E+0	294.65687E+3	2.0176358E-9	-26.955488E+0
63.268013E+0	294.65687E+3	1.9973740E-9	-28.118164E+0
65.655487E+0	294.65687E+3	1.9929984E-9	-28.926826E+0
68.042961E+0	294.65687E+3	1.9788824E-9	-30.003101E+0
70.430435E+0	294.65687E+3	1.9631825E-9	-30.731693E+0
72.817909E+0	294.65687E+3	1.9493067E-9	-31.978706E+0
75.205383E+0	294.65687E+3	1.9333526E-9	-32.748829E+0
77.592857E+0	294.65687E+3	1.9218622E-9	-33.812096E+0
79.980331E+0	294.65687E+3	1.9090871E-9	-34.744392E+0
82.367805E+0	294.65687E+3	1.8936483E-9	-35.529755E+0
84.755280E+0	294.65687E+3	1.8815132E-9	-36.558662E+0
87.142754E+0	294.65687E+3	1.8627766E-9	-37.280762E+0
89.530228E+0	294.65687E+3	1.8574248E-9	-38.128864E+0
91.917702E+0	294.65687E+3	1.8357081E-9	-39.040466E+0
94.305176E+0	294.65687E+3	1.8218376E-9	-39.879471E+0
96.692650E+0	294.65687E+3	1.8077899E-9	-40.913685E+0
99.080124E+0	294.65687E+3	1.7920795E-9	-41.643185E+0
101.46760E+0	294.65687E+3	1.7767557E-9	-42.357761E+0
103.85507E+0	294.65687E+3	1.7668284E-9	-43.016628E+0
106.24255E+0	294.65687E+3	1.7646959E-9	-43.265831E+0
108.63002E+0	294.65687E+3	1.7339165E-9	-44.742756E+0
111.01749E+0	294.65687E+3	1.7246111E-9	-45.391251E+0
113.40497E+0	294.65687E+3	1.7150680E-9	-45.838394E+0
115.79244E+0	294.65687E+3	1.6952296E-9	-47.049801E+0
118.17992E+0	294.65687E+3	1.6857072E-9	-47.684074E+0
120.56739E+0	294.65687E+3	1.6675913E-9	-48.507744E+0
122.95486E+0	294.65687E+3	1.6571975E-9	-49.206348E+0
125.34234E+0	294.65687E+3	1.6420084E-9	-49.755531E+0
127.72981E+0	294.65687E+3	1.6342895E-9	-50.557976E+0
130.11729E+0	294.65687E+3	1.6181161E-9	-51.318295E+0
132.50478E+0	294.65687E+3	1.6083360E-9	-52.056168E+0
134.89226E+0	294.65687E+3	1.5996610E-9	-52.513718E+0
137.27974E+0	294.65687E+3	1.5800663E-9	-53.480286E+0
139.66722E+0	294.65687E+3	1.5725797E-9	-54.080738E+0
142.05470E+0	294.65687E+3	1.5627328E-9	-54.630569E+0
144.44218E+0	294.65687E+3	1.5487367E-9	-55.399952E+0
146.82967E+0	294.65687E+3	1.5388193E-9	-56.007088E+0
149.21715E+0	294.65687E+3	1.5238848E-9	-56.649204E+0
151.60463E+0	294.65687E+3	1.5150849E-9	-57.389935E+0
153.99211E+0	294.65687E+3	1.5047649E-9	-57.960171E+0
156.37959E+0	294.65687E+3	1.4898373E-9	-58.599834E+0
158.76707E+0	294.65687E+3	1.4870235E-9	-59.281605E+0
161.15456E+0	294.65687E+3	1.4708863E-9	-59.965469E+0
163.54204E+0	294.65687E+3	1.4555246E-9	-60.604034E+0
165.92952E+0	294.65687E+3	1.4471151E-9	-61.257164E+0
168.31700E+0	294.65687E+3	1.4391569E-9	-61.904388E+0
170.70448E+0	294.65687E+3	1.4264195E-9	-62.676632E+0
173.09196E+0	294.65687E+3	1.4149415E-9	-63.358303E+0
175.47945E+0	294.65687E+3	1.4063589E-9	-63.711967E+0
177.86693E+0	294.65687E+3	1.3935483E-9	-64.663795E+0
180.25441E+0	294.65687E+3	1.3850254E-9	-64.910728E+0
182.64189E+0	294.65687E+3	1.3729791E-9	-65.798386E+0
185.02937E+0	294.65687E+3	1.3611301E-9	-66.511261E+0
187.41685E+0	294.65687E+3	1.3518728E-9	-67.057449E+0
189.80434E+0	294.65687E+3	1.3411841E-9	-67.667847E+0
192.19182E+0	294.65687E+3	1.3339472E-9	-68.381447E+0
194.57930E+0	294.65687E+3	1.3196960E-9	-68.800041E+0
196.96678E+0	294.65687E+3	1.3088554E-9	-69.590446E+0
199.35426E+0	294.65687E+3	1.2972897E-9	-70.045120E+0
201.74174E+0	294.65687E+3	1.2901157E-9	-70.615303E+0
204.12923E+0	294.65687E+3	1.2784699E-9	-71.300598E+0
206.51671E+0	294.65687E+3	1.2662562E-9	-71.991051E+0
208.90419E+0	294.65687E+3	1.2603999E-9	-72.609550E+0
211.29167E+0	294.65687E+3	1.2487116E-9	-73.193886E+0
213.67915E+0	294.65687E+3	1.2386440E-9	-73.731468E+0
216.06664E+0	294.65687E+3	1.2277674E-9	-74.322891E+0
218.45412E+0	294.65687E+3	1.2206953E-9	-74.833672E+0
220.84160E+0	294.65687E+3	1.2093584E-9	-75.518768E+0
223.22908E+0	294.65687E+3	1.1990182E-9	-76.128311E+0
225.61656E+0	294.65687E+3	1.1886521E-9	-76.774239E+0
228.00404E+0	294.65687E+3	1.1777295E-9	-77.351456E+0
230.39153E+0	294.65687E+3	1.1661243E-9	-77.766533E+0
232.77901E+0	294.65687E+3	1.1558827E-9	-78.368820E+0
235.16649E+0	294.65687E+3	1.1470103E-9	-79.058815E+0
237.55397E+0	294.65687E+3	1.1371990E-9	-79.500961E+0
239.94145E+0	294.65687E+3	1.1287450E-9	-80.094597E+0
242.32893E+0	294.65687E+3	1.1201855E-9	-80.645416E+0
244.71642E+0	294.65687E+3	1.1106411E-9	-81.141907E+0
247.10390E+0	294.65687E+3	1.0990491E-9	-81.589569E+0
249.49138E+0	294.65687E+3	1.0861489E-9	-82.297066E+0
251.87886E+0	294.65687E+3	1.0882694E-9	-82.237656E+0
254.26634E+0	294.65687E+3	1.0705593E-9	-83.248604E+0
256.65381E+0	294.65687E+3	1.0628010E-9	-83.829597E+0
259.04129E+0	294.65687E+3	1.0529355E-9	-84.330254E+0
261.42877E+0	294.65687E+3	1.0463882E-9	-84.896492E+0
263.81625E+0	294.65687E+3	1.0329265E-9	-85.413101E+0
266.20374E+0	294.65687E+3	1.0247149E-9	-85.938957E+0
268.59122E+0	294.65687E+3	1.0146420E-9	-86.377716E+0
270.97870E+0	294.65687E+3	1.0065324E-9	-86.973816E+0
273.36618E+0	294.65687E+3	996.39097E-12	-87.425484E+0
275.75366E+0	294.65687E+3	990.43940E-12	-88.189384E+0
278.14114E+0	294.65687E+3	982.31290E-12	-88.487091E+0
280.52863E+0	294.65687E+3	972.32522E-12	-88.859695E+0
282.91611E+0	294.65687E+3	966.10875E-12	-89.339668E+0
285.30359E+0	294.65687E+3	953.69956E-12	-89.957779E+0
287.69107E+0	294.65687E+3	945.91623E-12	-90.302521E+0
290.07855E+0	294.65687E+3	942.05510E-12	-91.038132E+0
292.46603E+0	294.65687E+3	930.76258E-12	-91.331093E+0
294.85352E+0	294.65687E+3	923.40607E-12	-91.888245E+0
297.24100E+0	294.65687E+3	911.87730E-12	-92.314583E+0
299.62848E+0	294.65687E+3	905.73704E-12	-92.816879E+0
302.01596E+0	294.65687E+3	897.00974E-12	-93.343681E+0
304.40344E+0	294.65687E+3	892.91785E-12	-93.627777E+0
306.79092E+0	294.65687E+3	884.94895E-12	-94.379677E+0
309.17841E+0	294.65687E+3	877.97120E-12	-94.681732E+0
311.56589E+0	294.65687E+3	868.88141E-12	-95.219109E+0
313.95337E+0	294.65687E+3	861.85181E-12	-95.709076E+0
316.34085E+0	294.65687E+3	853.59519E-12	-96.006409E+0
318.72833E+0	294.65687E+3	844.71186E-12	-96.615707E+0
321.11581E+0	294.65687E+3	835.21501E-12	-97.139229E+0
323.50330E+0	294.65687E+3	829.00764E-12	-97.755150E+0
325.89078E+0	294.65687E+3	823.28738E-12	-98.010963E+0
328.27826E+0	294.65687E+3	816.93596E-12	-98.614578E+0
330.66574E+0	294.65687E+3	807.53421E-12	-99.125862E+0
333.05322E+0	294.65687E+3	800.61557E-12	-99.395370E+0
335.44070E+0	294.65687E+3	793.01504E-12	-100.07623E+0
337.82819E+0	294.65687E+3	786.92508E-12	-100.24554E+0
340.21567E+0	294.65687E+3	779.40265E-12	-101.07405E+0
342.60315E+0	294.65687E+3	769.23423E-12	-101.36945E+0
344.99063E+0	294.65687E+3	763.75206E-12	-102.05298E+0
347.37811E+0	294.65687E+3	757.08140E-12	-102.25340E+0
349.76559E+0	294.65687E+3	748.51553E-12	-102.77860E+0
352.15308E+0	294.65687E+3	738.87552E-12	-103.20240E+0
354.54056E+0	294.65687E+3	732.88980E-12	-103.55333E+0
356.92804E+0	294.65687E+3	725.43144E-12	-104.26172E+0
359.31552E+0	294.65687E+3	721.12449E-12	-104.63040E+0
361.70300E+0	294.65687E+3	714.20275E-12	-105.08311E+0
364.09048E+0	294.65687E+3	705.04247E-12	-105.68196E+0
366.47797E+0	294.65687E+3	696.20809E-12	-105.95868E+0
368.86545E+0	294.65687E+3	691.23468E-12	-106.54241E+0
371.25293E+0	294.65687E+3	685.61701E-12	-106.75106E+0
373.64041E+0	294.65687E+3	675.81590E-12	-107.18243E+0
376.02789E+0	294.65687E+3	668.61322E-12	-107.67526E+0
378.41537E+0	294.65687E+3	662.29283E-12	-108.12130E+0
380.80286E+0	294.65687E+3	657.81819E-12	-108.35146E+0
383.19034E+0	294.65687E+3	648.25090E-12	-108.99248E+0
385.57782E+0	294.65687E+3	638.41116E-12	-109.49842E+0
387.96530E+0	294.65687E+3	632.02577E-12	-109.86460E+0
390.35278E+0	294.65687E+3	627.43932E-12	-110.04552E+0
392.74026E+0	294.65687E+3	619.23916E-12	-110.51549E+0
395.12775E+0	294.65687E+3	612.25303E-12	-111.01070E+0
397.51523E+0	294.65687E+3	606.61803E-12	-111.26469E+0
399.90271E+0	294.65687E+3	598.38356E-12	-111.64680E+0
402.29019E+0	294.65687E+3	590.21216E-12	-111.85815E+0
404.67767E+0	294.65687E+3	584.45204E-12	-112.46023E+0
407.06516E+0	294.65687E+3	578.25683E-12	-112.67343E+0
409.45264E+0	294.65687E+3	570.74140E-12	-113.04575E+0
411.84012E+0	294.65687E+3	563.84353E-12	-113.36024E+0
414.22760E+0	294.65687E+3	558.24634E-12	-113.70681E+0
416.61508E+0	294.65687E+3	548.69098E-12	-114.06753E+0
419.00256E+0	294.65687E+3	543.58901E-12	-114.21661E+0
421.39005E+0	294.65687E+3	536.62091E-12	-114.53904E+0
423.77753E+0	294.65687E+3	529.13446E-12	-114.82425E+0
426.16501E+0	294.65687E+3	525.41027E-12	-115.07846E+0
428.55249E+0	294.65687E+3	516.31716E-12	-115.14438E+0
430.93997E+0	294.65687E+3	512.07449E-12	-115.21199E+0
433.32745E+0	294.65687E+3	505.31629E-12	-115.68188E+0
435.71494E+0	294.65687E+3	498.38217E-12	-115.79341E+0
438.10242E+0	294.65687E+3	493.82487E-12	-115.94315E+0
440.48990E+0	294.65687E+3	487.02736E-12	-116.22350E+0
442.87738E+0	294.65687E+3	480.82294E-12	-116.45350E+0
445.26486E+0	294.65687E+3	473.46943E-12	-116.79949E+0
447.65234E+0	294.65687E+3	470.34693E-12	-116.73507E+0
450.03983E+0	294.65687E+3	463.62897E-12	-116.68639E+0
452.42731E+0	294.65687E+3	461.03391E-12	-117.04375E+0
454.81479E+0	294.65687E+3	453.70993E-12	-117.08717E+0
457.20227E+0	294.65687E+3	446.40838E-12	-117.08135E+0
459.58975E+0	294.65687E+3	441.63875E-12	-117.33995E+0
461.97723E+0	294.65687E+3	437.62691E-12	-117.31361E+0
464.36472E+0	294.65687E+3	432.47561E-12	-117.43053E+0
466.75220E+0	294.65687E+3	428.24694E-12	-117.43826E+0
469.13968E+0	294.65687E+3	425.34820E-12	-117.42503E+0
471.52716E+0	294.65687E+3	421.29564E-12	-117.67204E+0
473.91464E+0	294.65687E+3	416.31146E-12	-117.52319E+0
476.30212E+0	294.65687E+3	410.31542E-12	-117.45113E+0
478.68961E+0	294.65687E+3	406.40341E-12	-117.58883E+0
481.07709E+0	294.65687E+3	402.42282E-12	-117.52576E+0
483.46457E+0	294.65687E+3	397.54222E-12	-117.48429E+0
485.85205E+0	294.65687E+3	396.31673E-12	-117.25489E+0
488.23953E+0	294.65687E+3	393.13713E-12	-117.55659E+0
490.62701E+0	294.65687E+3	388.30555E-12	-117.49862E+0
493.01450E+0	294.65687E+3	384.14652E-12	-117.32307E+0
495.40198E+0	294.65687E+3	382.77628E-12	-117.53500E+0
497.78946E+0	294.65687E+3	379.75634E-12	-117.06542E+0
500.17694E+0	294.65687E+3	376.93432E-12	-117.16351E+0
502.56442E+0	294.65687E+3	375.55886E-12	-117.22096E+0
504.95190E+0	294.65687E+3	373.90605E-12	-117.55905E+0
507.33939E+0	294.65687E+3	372.26097E-12	-117.39278E+0
509.72687E+0	294.65687E+3	370.71118E-12	-117.37854E+0
512.11432E+0	294.65687E+3	367.82205E-12	-117.75746E+0
514.50177E+0	294.65687E+3	365.19862E-12	-118.01346E+0
516.88922E+0	294.65687E+3	361.09363E-12	-117.95896E+0
519.27667E+0	294.65687E+3	359.49108E-12	-118.25299E+0
521.66412E+0	294.65687E+3	358.40597E-12	-118.26328E+0
524.05157E+0	294.65687E+3	355.09432E-12	-118.25996E+0
526.43903E+0	294.65687E+3	351.52731E-12	-118.88128E+0
528.82648E+0	294.65687E+3	350.43027E-12	-118.73930E+0
531.21393E+0	294.65687E+3	347.77348E-12	-118.73813E+0
533.60138E+0	294.65687E+3	344.76896E-12	-118.91559E+0
535.98883E+0	294.65687E+3	343.52290E-12	-119.46281E+0
538.37628E+0	294.65687E+3	342.07112E-12	-119.44214E+0
540.76373E+0	294.65687E+3	338.86152E-12	-119.63973E+0
543.15118E+0	294.65687E+3	335.52153E-12	-119.74605E+0
545.53864E+0	294.65687E+3	332.18797E-12	-120.19781E+0
547.92609E+0	294.65687E+3	329.36540E-12	-120.29921E+0
550.31354E+0	294.65687E+3	327.26236E-12	-120.91586E+0
552.70099E+0	294.65687E+3	326.96565E-12	-120.82368E+0
555.08844E+0	294.65687E+3	322.90493E-12	-120.84836E+0
557.47589E+0	294.65687E+3	320.93800E-12	-121.07890E+0
559.86334E+0	294.65687E+3	317.15169E-12	-121.06860E+0
562.25079E+0	294.65687E+3	315.17874E-12	-121.52891E+0
564.63824E+0	294.65687E+3	311.92288E-12	-121.62963E+0
567.02570E+0	294.65687E+3	310.33151E-12	-121.75842E+0
569.41315E+0	294.65687E+3	306.83353E-12	-122.02625E+0
571.80060E+0	294.65687E+3	304.11160E-12	-121.99882E+0
574.18805E+0	294.65687E+3	301.79800E-12	-122.17032E+0
576.57550E+0	294.65687E+3	300.00255E-12	-122.80854E+0
578.96295E+0	294.65687E+3	298.29622E-12	-122.70707E+0
581.35040E+0	294.65687E+3	294.57897E-12	-122.82130E+0
583.73785E+0	294.65687E+3	293.16519E-12	-123.17666E+0
586.12531E+0	294.65687E+3	289.71009E-12	-123.31969E+0
588.51276E+0	294.65687E+3	288.66795E-12	-123.48260E+0
590.90021E+0	294.65687E+3	284.93302E-12	-123.90684E+0
593.28766E+0	294.65687E+3	282.47962E-12	-124.07733E+0
595.67511E+0	294.65687E+3	280.95487E-12	-124.22574E+0
598.06256E+0	294.65687E+3	276.98313E-12	-124.28490E+0
600.45001E+0	294.65687E+3	275.37192E-12	-124.24733E+0
602.83746E+0	294.65687E+3	272.38251E-12	-124.71383E+0
605.22491E+0	294.65687E+3	269.72291E-12	-124.84592E+0
607.61237E+0	294.65687E+3	266.96276E-12	-124.82064E+0
609.99982E+0	294.65687E+3	265.20691E-12	-125.12868E+0
