Experiment	Experiment	
Saved Date	11.11.2019 11:17:13	
User		
f_res (Hz)	420599.639	
Q	854	
Phase (deg)	201.86	
Amp/Exc (nm/mV)	0.286413	
Number of points	512	
Fit length	 	

[DATA]
OC M1 Freq. Shift (Hz)	OC M1 Center Freq. (Hz)	OC D1 Amplitude (m)	OC D1 Phase (deg)
-250.00000E+3	250.00000E+3	77.165149E-12	-12.246598E+0
-249.02153E+3	250.00000E+3	79.041045E-12	1.8403673E+0
-248.04306E+3	250.00000E+3	78.401036E-12	2.3468421E+0
-247.06459E+3	250.00000E+3	75.010179E-12	2.0978251E+0
-246.08612E+3	250.00000E+3	74.559227E-12	4.4229679E+0
-245.10766E+3	250.00000E+3	69.795218E-12	1.2561076E+0
-244.12919E+3	250.00000E+3	71.051581E-12	731.30614E-3
-243.15072E+3	250.00000E+3	68.507290E-12	-340.73392E-3
-242.17225E+3	250.00000E+3	62.922806E-12	4.2986054E+0
-241.19378E+3	250.00000E+3	59.355805E-12	3.4154592E+0
-240.21531E+3	250.00000E+3	54.844906E-12	4.0910368E+0
-239.23684E+3	250.00000E+3	49.950641E-12	3.7930155E+0
-238.25837E+3	250.00000E+3	44.796389E-12	1.8489524E+0
-237.27991E+3	250.00000E+3	39.419374E-12	5.0851169E+0
-236.30144E+3	250.00000E+3	35.596675E-12	6.0803475E+0
-235.32297E+3	250.00000E+3	32.032748E-12	4.3611965E+0
-234.34450E+3	250.00000E+3	27.198192E-12	7.4737101E+0
-233.36603E+3	250.00000E+3	24.299271E-12	9.6729479E+0
-232.38756E+3	250.00000E+3	21.675769E-12	10.204568E+0
-231.40909E+3	250.00000E+3	20.551092E-12	8.2367964E+0
-230.43062E+3	250.00000E+3	18.946332E-12	10.928396E+0
-229.45216E+3	250.00000E+3	18.928669E-12	7.8048816E+0
-228.47369E+3	250.00000E+3	18.997578E-12	9.4702168E+0
-227.49522E+3	250.00000E+3	19.161912E-12	8.9450703E+0
-226.51675E+3	250.00000E+3	20.096449E-12	6.5794668E+0
-225.53828E+3	250.00000E+3	20.447437E-12	10.789852E+0
-224.55981E+3	250.00000E+3	21.100188E-12	7.9516768E+0
-223.58134E+3	250.00000E+3	21.907209E-12	7.4638038E+0
-222.60287E+3	250.00000E+3	22.970089E-12	10.913943E+0
-221.62441E+3	250.00000E+3	24.713025E-12	9.1499720E+0
-220.64594E+3	250.00000E+3	25.740026E-12	6.7411208E+0
-219.66747E+3	250.00000E+3	27.642446E-12	5.9703956E+0
-218.68900E+3	250.00000E+3	30.423219E-12	5.8528504E+0
-217.71053E+3	250.00000E+3	31.998681E-12	3.6969957E+0
-216.73206E+3	250.00000E+3	35.167157E-12	4.4243517E+0
-215.75359E+3	250.00000E+3	38.067206E-12	5.2425227E+0
-214.77512E+3	250.00000E+3	40.586406E-12	2.0917878E+0
-213.79666E+3	250.00000E+3	43.986006E-12	3.6144974E+0
-212.81819E+3	250.00000E+3	49.152373E-12	2.3624685E+0
-211.83972E+3	250.00000E+3	50.397086E-12	2.3123288E+0
-210.86125E+3	250.00000E+3	52.303648E-12	1.2173716E+0
-209.88278E+3	250.00000E+3	54.420853E-12	2.6179726E+0
-208.90431E+3	250.00000E+3	55.485963E-12	1.9590328E+0
-207.92584E+3	250.00000E+3	56.863712E-12	2.5881982E+0
-206.94737E+3	250.00000E+3	57.480517E-12	181.33308E-3
-205.96891E+3	250.00000E+3	58.498553E-12	1.2166001E+0
-204.99044E+3	250.00000E+3	57.507131E-12	3.1044526E+0
-204.01197E+3	250.00000E+3	56.483290E-12	4.0054049E+0
-203.03350E+3	250.00000E+3	55.790719E-12	7.8126154E+0
-202.05503E+3	250.00000E+3	54.445504E-12	1.9898535E+0
-201.07656E+3	250.00000E+3	51.614012E-12	-4.9545856E+0
-200.09809E+3	250.00000E+3	49.677314E-12	875.01079E-3
-199.11962E+3	250.00000E+3	50.857613E-12	1.2714865E+0
-198.14116E+3	250.00000E+3	47.679454E-12	-2.9576492E+0
-197.16269E+3	250.00000E+3	52.508938E-12	-7.8672552E+0
-196.18422E+3	250.00000E+3	42.543798E-12	7.8088050E+0
-195.20575E+3	250.00000E+3	37.077546E-12	5.7398348E+0
-194.22728E+3	250.00000E+3	55.314645E-12	2.9985828E+0
-193.24881E+3	250.00000E+3	68.051662E-12	-9.9063921E+0
-192.27034E+3	250.00000E+3	64.185157E-12	-33.474419E+0
-191.29187E+3	250.00000E+3	67.477156E-12	-36.060116E+0
-190.31341E+3	250.00000E+3	124.30990E-12	-17.981701E+0
-189.33494E+3	250.00000E+3	85.755202E-12	17.291300E+0
-188.35647E+3	250.00000E+3	87.412896E-12	17.295143E+0
-187.37800E+3	250.00000E+3	54.037951E-12	68.988373E+0
-186.39953E+3	250.00000E+3	66.576425E-12	56.814545E+0
-185.42106E+3	250.00000E+3	88.600918E-12	62.998211E+0
-184.44259E+3	250.00000E+3	883.58454E-12	76.262444E+0
-183.46412E+3	250.00000E+3	300.59966E-12	-10.079358E+0
-182.48566E+3	250.00000E+3	58.888887E-12	-39.686516E+0
-181.50719E+3	250.00000E+3	151.53492E-12	-6.8614597E+0
-180.52872E+3	250.00000E+3	56.984095E-12	-24.657806E+0
-179.55025E+3	250.00000E+3	108.12130E-12	-5.7132034E+0
-178.57178E+3	250.00000E+3	74.365236E-12	1.8334837E+0
-177.59331E+3	250.00000E+3	37.753883E-12	9.3396273E+0
-176.61484E+3	250.00000E+3	49.833727E-12	1.6353655E+0
-175.63637E+3	250.00000E+3	60.167253E-12	749.24022E-3
-174.65791E+3	250.00000E+3	32.547100E-12	-1.9923339E+0
-173.67944E+3	250.00000E+3	42.760961E-12	945.71769E-3
-172.70097E+3	250.00000E+3	58.623779E-12	107.63632E-3
-171.72250E+3	250.00000E+3	36.377668E-12	-1.8072133E+0
-170.74403E+3	250.00000E+3	26.881941E-12	4.4745245E+0
-169.76556E+3	250.00000E+3	26.004181E-12	-6.3229961E+0
-168.78709E+3	250.00000E+3	25.891733E-12	13.776369E+0
-167.80862E+3	250.00000E+3	25.080894E-12	47.560394E+0
-166.83016E+3	250.00000E+3	24.966930E-12	52.211876E+0
-165.85169E+3	250.00000E+3	23.979657E-12	41.414345E+0
-164.87322E+3	250.00000E+3	23.916744E-12	32.971424E+0
-163.89475E+3	250.00000E+3	22.993765E-12	23.755627E+0
-162.91628E+3	250.00000E+3	24.490234E-12	31.669954E+0
-161.93781E+3	250.00000E+3	23.227569E-12	23.484575E+0
-160.95934E+3	250.00000E+3	25.456160E-12	30.832918E+0
-159.98087E+3	250.00000E+3	26.157564E-12	20.001320E+0
-159.00241E+3	250.00000E+3	24.525179E-12	-493.81337E-3
-158.02394E+3	250.00000E+3	23.634931E-12	8.7811337E+0
-157.04547E+3	250.00000E+3	25.621748E-12	-12.645501E+0
-156.06700E+3	250.00000E+3	22.426503E-12	-11.215281E+0
-155.08853E+3	250.00000E+3	21.472636E-12	7.8790245E+0
-154.11006E+3	250.00000E+3	21.932001E-12	-1.3983130E+0
-153.13159E+3	250.00000E+3	20.980996E-12	3.2694564E+0
-152.15312E+3	250.00000E+3	19.805305E-12	10.294430E+0
-151.17466E+3	250.00000E+3	19.201708E-12	8.3686733E+0
-150.19619E+3	250.00000E+3	20.746928E-12	7.8656230E+0
-149.21772E+3	250.00000E+3	18.233293E-12	6.6687007E+0
-148.23925E+3	250.00000E+3	18.164109E-12	4.5334411E+0
-147.26078E+3	250.00000E+3	17.582848E-12	-232.11190E-3
-146.28231E+3	250.00000E+3	17.633684E-12	426.29632E-3
-145.30384E+3	250.00000E+3	17.510418E-12	5.6314178E+0
-144.32537E+3	250.00000E+3	17.579211E-12	13.411701E+0
-143.34691E+3	250.00000E+3	17.436002E-12	12.631985E+0
-142.36844E+3	250.00000E+3	17.324314E-12	13.820734E+0
-141.38997E+3	250.00000E+3	17.394884E-12	10.105144E+0
-140.41150E+3	250.00000E+3	17.696409E-12	11.612923E+0
-139.43303E+3	250.00000E+3	18.014170E-12	14.401054E+0
-138.45456E+3	250.00000E+3	17.850771E-12	13.739424E+0
-137.47609E+3	250.00000E+3	17.454559E-12	8.4595537E+0
-136.49762E+3	250.00000E+3	17.978882E-12	-4.7853374E+0
-135.51916E+3	250.00000E+3	18.521665E-12	11.181304E+0
-134.54069E+3	250.00000E+3	17.547332E-12	11.621318E+0
-133.56222E+3	250.00000E+3	18.067539E-12	13.132096E+0
-132.58375E+3	250.00000E+3	17.592186E-12	9.6948328E+0
-131.60528E+3	250.00000E+3	17.609483E-12	6.1053348E+0
-130.62680E+3	250.00000E+3	17.663192E-12	18.523758E+0
-129.64833E+3	250.00000E+3	17.490150E-12	13.376701E+0
-128.66985E+3	250.00000E+3	17.214797E-12	6.0784965E+0
-127.69137E+3	250.00000E+3	17.293295E-12	13.838487E+0
-126.71290E+3	250.00000E+3	17.613589E-12	12.823286E+0
-125.73442E+3	250.00000E+3	17.486304E-12	16.897690E+0
-124.75595E+3	250.00000E+3	17.817347E-12	25.530424E+0
-123.77747E+3	250.00000E+3	17.767295E-12	14.724269E+0
-122.79899E+3	250.00000E+3	17.495340E-12	3.7355366E+0
-121.82052E+3	250.00000E+3	17.258880E-12	11.802601E+0
-120.84204E+3	250.00000E+3	17.505639E-12	12.669034E+0
-119.86356E+3	250.00000E+3	17.785799E-12	14.752894E+0
-118.88509E+3	250.00000E+3	17.677009E-12	13.386118E+0
-117.90661E+3	250.00000E+3	17.782834E-12	11.602048E+0
-116.92813E+3	250.00000E+3	17.871272E-12	8.4662600E+0
-115.94966E+3	250.00000E+3	17.778631E-12	9.8307028E+0
-114.97118E+3	250.00000E+3	17.735480E-12	12.003123E+0
-113.99270E+3	250.00000E+3	17.820339E-12	14.713510E+0
-113.01423E+3	250.00000E+3	18.235106E-12	12.216143E+0
-112.03575E+3	250.00000E+3	17.372553E-12	11.992736E+0
-111.05727E+3	250.00000E+3	17.388643E-12	12.918876E+0
-110.07880E+3	250.00000E+3	17.567937E-12	13.510798E+0
-109.10032E+3	250.00000E+3	17.503684E-12	9.6452808E+0
-108.12184E+3	250.00000E+3	17.362816E-12	902.71217E-3
-107.14337E+3	250.00000E+3	17.598662E-12	3.0131350E+0
-106.16489E+3	250.00000E+3	17.184067E-12	6.6827545E+0
-105.18641E+3	250.00000E+3	17.230885E-12	3.5194371E+0
-104.20794E+3	250.00000E+3	17.298234E-12	4.6277666E+0
-103.22946E+3	250.00000E+3	17.154830E-12	4.1277447E+0
-102.25098E+3	250.00000E+3	17.301867E-12	14.418850E+0
-101.27251E+3	250.00000E+3	16.974084E-12	3.6894596E+0
-100.29403E+3	250.00000E+3	17.455367E-12	9.6959229E+0
-99.315555E+3	250.00000E+3	17.153081E-12	8.1404762E+0
-98.337078E+3	250.00000E+3	17.099818E-12	7.7021508E+0
-97.358602E+3	250.00000E+3	17.215646E-12	-448.61889E-3
-96.380125E+3	250.00000E+3	17.298567E-12	5.2475781E+0
-95.401648E+3	250.00000E+3	17.083905E-12	9.0960255E+0
-94.423172E+3	250.00000E+3	17.342936E-12	13.275361E+0
-93.444695E+3	250.00000E+3	17.323537E-12	11.376999E+0
-92.466219E+3	250.00000E+3	16.999740E-12	3.4417560E+0
-91.487742E+3	250.00000E+3	17.239857E-12	6.8789411E+0
-90.509266E+3	250.00000E+3	17.233963E-12	-1.1238817E+0
-89.530789E+3	250.00000E+3	17.218213E-12	5.1273031E+0
-88.552312E+3	250.00000E+3	17.562106E-12	15.469608E+0
-87.573836E+3	250.00000E+3	17.848074E-12	29.533926E+0
-86.595359E+3	250.00000E+3	17.379837E-12	17.533411E+0
-85.616883E+3	250.00000E+3	17.197554E-12	16.458168E+0
-84.638406E+3	250.00000E+3	17.232932E-12	15.884311E+0
-83.659930E+3	250.00000E+3	17.313349E-12	14.290669E+0
-82.681453E+3	250.00000E+3	16.909524E-12	3.9655161E+0
-81.702977E+3	250.00000E+3	17.133212E-12	4.7959528E+0
-80.724500E+3	250.00000E+3	17.330564E-12	12.048373E+0
-79.746023E+3	250.00000E+3	17.220033E-12	10.532395E+0
-78.767547E+3	250.00000E+3	17.175412E-12	11.356034E+0
-77.789070E+3	250.00000E+3	17.471535E-12	16.458200E+0
-76.810594E+3	250.00000E+3	17.668296E-12	16.368357E+0
-75.832117E+3	250.00000E+3	17.410665E-12	16.389112E+0
-74.853641E+3	250.00000E+3	17.268638E-12	12.140151E+0
-73.875164E+3	250.00000E+3	17.311040E-12	17.360558E+0
-72.896687E+3	250.00000E+3	17.137200E-12	18.186583E+0
-71.918211E+3	250.00000E+3	17.644006E-12	20.347572E+0
-70.939734E+3	250.00000E+3	16.915379E-12	11.395281E+0
-69.961258E+3	250.00000E+3	17.247266E-12	15.784133E+0
-68.982781E+3	250.00000E+3	17.294142E-12	13.615481E+0
-68.004305E+3	250.00000E+3	17.003138E-12	8.1439943E+0
-67.025828E+3	250.00000E+3	17.265514E-12	15.559711E+0
-66.047352E+3	250.00000E+3	17.267203E-12	17.774715E+0
-65.068879E+3	250.00000E+3	17.598993E-12	27.994242E+0
-64.090406E+3	250.00000E+3	17.594233E-12	21.533321E+0
-63.111934E+3	250.00000E+3	17.414585E-12	22.924696E+0
-62.133461E+3	250.00000E+3	17.499356E-12	14.501702E+0
-61.154988E+3	250.00000E+3	17.995055E-12	25.106964E+0
-60.176516E+3	250.00000E+3	18.103460E-12	-10.719830E+0
-59.198043E+3	250.00000E+3	17.367427E-12	-13.063912E+0
-58.219570E+3	250.00000E+3	17.197509E-12	10.811675E+0
-57.241098E+3	250.00000E+3	17.364568E-12	3.5394897E+0
-56.262625E+3	250.00000E+3	17.128753E-12	-94.975196E-3
-55.284152E+3	250.00000E+3	16.875975E-12	4.0100050E+0
-54.305680E+3	250.00000E+3	17.026609E-12	-461.76496E-3
-53.327207E+3	250.00000E+3	16.860315E-12	4.8944697E+0
-52.348734E+3	250.00000E+3	17.165561E-12	9.3526640E+0
-51.370262E+3	250.00000E+3	17.046337E-12	4.9949961E+0
-50.391789E+3	250.00000E+3	17.187616E-12	5.8893504E+0
-49.413316E+3	250.00000E+3	17.377750E-12	8.4472780E+0
-48.434844E+3	250.00000E+3	17.289373E-12	12.163716E+0
-47.456371E+3	250.00000E+3	17.204405E-12	13.847692E+0
-46.477898E+3	250.00000E+3	17.165273E-12	7.0842433E+0
-45.499426E+3	250.00000E+3	17.066480E-12	8.2962723E+0
-44.520953E+3	250.00000E+3	16.955366E-12	345.49180E-3
-43.542480E+3	250.00000E+3	17.350885E-12	9.5782652E+0
-42.564008E+3	250.00000E+3	17.670450E-12	20.738714E+0
-41.585535E+3	250.00000E+3	17.111213E-12	10.305809E+0
-40.607062E+3	250.00000E+3	17.329886E-12	18.948536E+0
-39.628590E+3	250.00000E+3	17.181988E-12	16.172699E+0
-38.650117E+3	250.00000E+3	17.094326E-12	2.3322239E+0
-37.671645E+3	250.00000E+3	17.366844E-12	-757.49707E-3
-36.693172E+3	250.00000E+3	17.277256E-12	8.4317236E+0
-35.714699E+3	250.00000E+3	17.504758E-12	14.380591E+0
-34.736227E+3	250.00000E+3	17.148775E-12	5.8640552E+0
-33.757754E+3	250.00000E+3	17.333092E-12	16.029772E+0
-32.779281E+3	250.00000E+3	17.267281E-12	13.575492E+0
-31.800809E+3	250.00000E+3	17.415826E-12	13.653694E+0
-30.822336E+3	250.00000E+3	17.392978E-12	13.394796E+0
-29.843863E+3	250.00000E+3	17.192877E-12	13.580729E+0
-28.865391E+3	250.00000E+3	16.985118E-12	6.7111287E+0
-27.886918E+3	250.00000E+3	17.258112E-12	17.053429E+0
-26.908445E+3	250.00000E+3	17.210988E-12	6.7586336E+0
-25.929973E+3	250.00000E+3	17.535298E-12	13.827533E+0
-24.951500E+3	250.00000E+3	17.376139E-12	9.3951235E+0
-23.973027E+3	250.00000E+3	17.475556E-12	21.379166E+0
-22.994555E+3	250.00000E+3	17.609567E-12	24.102787E+0
-22.016082E+3	250.00000E+3	17.236637E-12	20.583740E+0
-21.037609E+3	250.00000E+3	17.651719E-12	22.460258E+0
-20.059137E+3	250.00000E+3	17.353733E-12	16.975098E+0
-19.080664E+3	250.00000E+3	17.722051E-12	23.312914E+0
-18.102191E+3	250.00000E+3	17.799085E-12	27.385992E+0
-17.123719E+3	250.00000E+3	17.525835E-12	27.341503E+0
-16.145245E+3	250.00000E+3	17.801902E-12	26.911776E+0
-15.166771E+3	250.00000E+3	17.800181E-12	25.549234E+0
-14.188298E+3	250.00000E+3	17.369810E-12	22.583374E+0
-13.209824E+3	250.00000E+3	17.529417E-12	25.650686E+0
-12.231351E+3	250.00000E+3	17.335041E-12	23.959009E+0
-11.252877E+3	250.00000E+3	17.514577E-12	26.471125E+0
-10.274403E+3	250.00000E+3	17.359555E-12	23.040016E+0
-9.2959297E+3	250.00000E+3	17.702973E-12	19.169245E+0
-8.3174561E+3	250.00000E+3	17.361555E-12	11.599963E+0
-7.3389824E+3	250.00000E+3	17.334315E-12	13.314397E+0
-6.3605088E+3	250.00000E+3	17.531532E-12	13.311014E+0
-5.3820352E+3	250.00000E+3	17.359957E-12	10.984847E+0
-4.4035615E+3	250.00000E+3	17.504446E-12	14.548934E+0
-3.4250879E+3	250.00000E+3	17.310276E-12	14.092533E+0
-2.4466143E+3	250.00000E+3	17.249148E-12	5.3937292E+0
-1.4681406E+3	250.00000E+3	17.072109E-12	10.969635E+0
-489.66705E+0	250.00000E+3	17.048672E-12	9.5466156E+0
488.80652E+0	250.00000E+3	17.162443E-12	5.6890779E+0
1.4672800E+3	250.00000E+3	17.230556E-12	7.4047513E+0
2.4457537E+3	250.00000E+3	17.053487E-12	5.5360270E+0
3.4242273E+3	250.00000E+3	17.327506E-12	1.1669272E+0
4.4027007E+3	250.00000E+3	17.287904E-12	6.7965131E+0
5.3811743E+3	250.00000E+3	17.132486E-12	5.2584324E+0
6.3596479E+3	250.00000E+3	17.285916E-12	1.4923776E+0
7.3381216E+3	250.00000E+3	17.108070E-12	3.0344095E+0
8.3165947E+3	250.00000E+3	16.851560E-12	-5.6309276E+0
9.2950684E+3	250.00000E+3	17.196682E-12	-8.2690229E+0
10.273542E+3	250.00000E+3	17.218161E-12	5.6981111E+0
11.252016E+3	250.00000E+3	17.220307E-12	10.192429E+0
12.230489E+3	250.00000E+3	17.421963E-12	25.807362E+0
13.208963E+3	250.00000E+3	16.961767E-12	15.094738E+0
14.187437E+3	250.00000E+3	17.461170E-12	11.655847E+0
15.165910E+3	250.00000E+3	17.419023E-12	15.431245E+0
16.144384E+3	250.00000E+3	17.202604E-12	-1.6088480E+0
17.122857E+3	250.00000E+3	17.039767E-12	-2.1629498E+0
18.101330E+3	250.00000E+3	17.208490E-12	3.3657777E+0
19.079803E+3	250.00000E+3	17.136409E-12	-620.32515E-3
20.058275E+3	250.00000E+3	17.013609E-12	3.5300202E+0
21.036748E+3	250.00000E+3	17.656718E-12	18.134676E+0
22.015221E+3	250.00000E+3	17.247863E-12	8.9299736E+0
22.993693E+3	250.00000E+3	17.179400E-12	337.96656E-3
23.972166E+3	250.00000E+3	16.952715E-12	-4.5783391E+0
24.950639E+3	250.00000E+3	17.445266E-12	12.603885E+0
25.929111E+3	250.00000E+3	17.010303E-12	6.8547406E+0
26.907584E+3	250.00000E+3	17.998570E-12	29.692932E+0
27.886057E+3	250.00000E+3	18.227876E-12	26.105865E+0
28.864529E+3	250.00000E+3	18.457217E-12	11.524076E+0
29.843002E+3	250.00000E+3	17.744301E-12	-5.7296052E+0
30.821475E+3	250.00000E+3	17.223355E-12	-18.886244E+0
31.799947E+3	250.00000E+3	17.977345E-12	-22.046730E+0
32.778422E+3	250.00000E+3	17.737922E-12	-33.965981E+0
33.756895E+3	250.00000E+3	19.379748E-12	-52.841114E+0
34.735367E+3	250.00000E+3	23.269511E-12	-58.396919E+0
35.713840E+3	250.00000E+3	21.743623E-12	4.6065989E+0
36.692312E+3	250.00000E+3	17.507133E-12	11.298135E+0
37.670785E+3	250.00000E+3	21.524739E-12	22.383783E+0
38.649258E+3	250.00000E+3	18.864443E-12	33.740246E+0
39.627730E+3	250.00000E+3	20.584028E-12	44.954319E+0
40.606203E+3	250.00000E+3	19.065664E-12	9.8021021E+0
41.584676E+3	250.00000E+3	24.435089E-12	-17.105991E+0
42.563148E+3	250.00000E+3	35.644227E-12	92.228951E+0
43.541621E+3	250.00000E+3	52.179906E-12	87.198074E+0
44.520094E+3	250.00000E+3	46.493840E-12	15.794536E+0
45.498566E+3	250.00000E+3	18.039462E-12	-16.306440E+0
46.477039E+3	250.00000E+3	24.654960E-12	17.274580E+0
47.455512E+3	250.00000E+3	21.587985E-12	-32.453869E+0
48.433984E+3	250.00000E+3	18.258561E-12	-11.382505E+0
49.412457E+3	250.00000E+3	18.872065E-12	41.038544E+0
50.390930E+3	250.00000E+3	26.017161E-12	45.257927E+0
51.369402E+3	250.00000E+3	43.519705E-12	-76.230324E+0
52.347875E+3	250.00000E+3	30.238177E-12	-80.162346E+0
53.326348E+3	250.00000E+3	44.357459E-12	8.9319592E+0
54.304820E+3	250.00000E+3	25.293875E-12	76.873909E+0
55.283293E+3	250.00000E+3	17.888873E-12	2.3775210E+0
56.261766E+3	250.00000E+3	17.688000E-12	-5.0904808E+0
57.240238E+3	250.00000E+3	17.071169E-12	882.52378E-3
58.218711E+3	250.00000E+3	21.696103E-12	-945.45251E-3
59.197184E+3	250.00000E+3	17.516160E-12	-14.129912E+0
60.175656E+3	250.00000E+3	22.442955E-12	-14.550686E+0
61.154129E+3	250.00000E+3	38.771288E-12	122.20691E+0
62.132602E+3	250.00000E+3	47.379076E-12	78.057922E+0
63.111074E+3	250.00000E+3	32.633694E-12	16.159714E+0
64.089547E+3	250.00000E+3	28.579488E-12	8.9054461E+0
65.068020E+3	250.00000E+3	29.962678E-12	-25.693783E+0
66.046492E+3	250.00000E+3	28.049283E-12	-50.166939E+0
67.024969E+3	250.00000E+3	25.439621E-12	-71.599648E+0
68.003445E+3	250.00000E+3	21.359397E-12	-67.129486E+0
68.981922E+3	250.00000E+3	21.368549E-12	-66.056404E+0
69.960398E+3	250.00000E+3	21.913780E-12	-62.973377E+0
70.938875E+3	250.00000E+3	20.259754E-12	-38.830303E+0
71.917352E+3	250.00000E+3	23.159039E-12	-6.6437607E+0
72.895828E+3	250.00000E+3	18.435493E-12	25.191198E+0
73.874305E+3	250.00000E+3	17.825868E-12	8.7523260E+0
74.852781E+3	250.00000E+3	17.587452E-12	10.353327E+0
75.831258E+3	250.00000E+3	17.502839E-12	-3.5449181E+0
76.809734E+3	250.00000E+3	19.468753E-12	-42.662018E+0
77.788211E+3	250.00000E+3	20.080777E-12	35.272396E+0
78.766687E+3	250.00000E+3	18.973373E-12	47.399834E+0
79.745164E+3	250.00000E+3	18.186180E-12	8.9338570E+0
80.723641E+3	250.00000E+3	21.466431E-12	62.081863E+0
81.702117E+3	250.00000E+3	18.172035E-12	-7.4681015E+0
82.680594E+3	250.00000E+3	20.130652E-12	24.942652E+0
83.659070E+3	250.00000E+3	21.515094E-12	58.483803E+0
84.637547E+3	250.00000E+3	18.536742E-12	16.297865E+0
85.616023E+3	250.00000E+3	20.497867E-12	19.483664E+0
86.594500E+3	250.00000E+3	19.052432E-12	-16.522039E+0
87.572977E+3	250.00000E+3	22.204211E-12	-59.876301E+0
88.551453E+3	250.00000E+3	24.874897E-12	-89.396690E+0
89.529930E+3	250.00000E+3	27.509049E-12	-72.601585E+0
90.508406E+3	250.00000E+3	35.609789E-12	107.43996E+0
91.486883E+3	250.00000E+3	27.248419E-12	89.052612E+0
92.465359E+3	250.00000E+3	23.628622E-12	52.036602E+0
93.443836E+3	250.00000E+3	17.792729E-12	2.5405719E+0
94.422312E+3	250.00000E+3	18.414770E-12	-32.780834E+0
95.400789E+3	250.00000E+3	17.480961E-12	-12.056364E+0
96.379266E+3	250.00000E+3	17.617066E-12	-10.538281E+0
97.357742E+3	250.00000E+3	18.580710E-12	-36.546829E+0
98.336219E+3	250.00000E+3	17.640925E-12	-11.460308E+0
99.314695E+3	250.00000E+3	19.187841E-12	-9.8655291E+0
100.29317E+3	250.00000E+3	19.242757E-12	-9.7712126E+0
101.27165E+3	250.00000E+3	24.167019E-12	55.144775E+0
102.25012E+3	250.00000E+3	23.941318E-12	82.401581E+0
103.22860E+3	250.00000E+3	23.241320E-12	78.602684E+0
104.20708E+3	250.00000E+3	22.501272E-12	67.994095E+0
105.18555E+3	250.00000E+3	17.681521E-12	24.564022E+0
106.16403E+3	250.00000E+3	18.478786E-12	26.836256E+0
107.14251E+3	250.00000E+3	23.108388E-12	71.725342E+0
108.12098E+3	250.00000E+3	40.119220E-12	97.521515E+0
109.09946E+3	250.00000E+3	41.117783E-12	56.696621E+0
110.07794E+3	250.00000E+3	39.058125E-12	20.809570E+0
111.05641E+3	250.00000E+3	31.012269E-12	-4.9205990E+0
112.03489E+3	250.00000E+3	24.869716E-12	-46.572346E+0
113.01337E+3	250.00000E+3	19.618805E-12	-35.546448E+0
113.99184E+3	250.00000E+3	18.017098E-12	-27.243332E+0
114.97032E+3	250.00000E+3	19.143138E-12	25.391859E+0
115.94880E+3	250.00000E+3	19.432690E-12	-28.463541E+0
116.92727E+3	250.00000E+3	18.571374E-12	-36.641949E+0
117.90575E+3	250.00000E+3	18.216409E-12	-30.183510E+0
118.88423E+3	250.00000E+3	17.126916E-12	-12.823912E+0
119.86270E+3	250.00000E+3	17.470215E-12	-26.137463E+0
120.84118E+3	250.00000E+3	17.682415E-12	-14.886979E+0
121.81966E+3	250.00000E+3	17.928907E-12	-5.6425762E+0
122.79813E+3	250.00000E+3	17.274541E-12	2.2394350E+0
123.77661E+3	250.00000E+3	17.334741E-12	-17.702662E+0
124.75509E+3	250.00000E+3	17.558325E-12	-4.7260237E+0
125.73356E+3	250.00000E+3	17.346130E-12	1.7684108E+0
126.71204E+3	250.00000E+3	17.388318E-12	-6.4048376E+0
127.69052E+3	250.00000E+3	17.650393E-12	-20.244987E+0
128.66899E+3	250.00000E+3	18.126714E-12	-32.423981E+0
129.64747E+3	250.00000E+3	18.647271E-12	-15.003303E+0
130.62595E+3	250.00000E+3	18.753006E-12	-36.649506E+0
131.60442E+3	250.00000E+3	20.403299E-12	-34.106998E+0
132.58289E+3	250.00000E+3	22.538407E-12	-39.507523E+0
133.56136E+3	250.00000E+3	26.457133E-12	-12.424087E+0
134.53983E+3	250.00000E+3	34.523068E-12	18.181141E+0
135.51830E+3	250.00000E+3	48.764236E-12	133.45045E+0
136.49677E+3	250.00000E+3	50.671890E-12	100.10059E+0
137.47523E+3	250.00000E+3	33.416894E-12	71.150909E+0
138.45370E+3	250.00000E+3	27.592952E-12	56.437775E+0
139.43217E+3	250.00000E+3	26.587434E-12	59.211586E+0
140.41064E+3	250.00000E+3	26.713695E-12	46.209660E+0
141.38911E+3	250.00000E+3	35.950132E-12	47.289471E+0
142.36758E+3	250.00000E+3	38.178953E-12	15.187119E+0
143.34605E+3	250.00000E+3	38.048287E-12	-11.990986E+0
144.32452E+3	250.00000E+3	35.373461E-12	-35.212711E+0
145.30298E+3	250.00000E+3	33.741954E-12	-66.597488E+0
146.28145E+3	250.00000E+3	25.002240E-12	-82.424904E+0
147.25992E+3	250.00000E+3	18.405163E-12	3.3578336E+0
148.23839E+3	250.00000E+3	20.501673E-12	-17.819048E+0
149.21686E+3	250.00000E+3	20.475316E-12	-55.746712E+0
150.19533E+3	250.00000E+3	18.692131E-12	-23.301006E+0
151.17380E+3	250.00000E+3	18.086328E-12	-2.6505623E+0
152.15227E+3	250.00000E+3	19.743009E-12	51.839478E+0
153.13073E+3	250.00000E+3	27.889824E-12	43.918980E+0
154.10920E+3	250.00000E+3	33.563586E-12	-1.5494361E+0
155.08767E+3	250.00000E+3	42.861815E-12	-60.008369E+0
156.06614E+3	250.00000E+3	31.141513E-12	-85.547890E+0
157.04461E+3	250.00000E+3	25.615204E-12	-43.617050E+0
158.02308E+3	250.00000E+3	29.650941E-12	-64.646744E+0
159.00155E+3	250.00000E+3	42.366926E-12	-72.408905E+0
159.98002E+3	250.00000E+3	118.79921E-12	-96.654709E+0
160.95848E+3	250.00000E+3	69.068848E-12	-84.718918E+0
161.93695E+3	250.00000E+3	315.68143E-12	-156.22505E+0
162.91542E+3	250.00000E+3	477.62694E-12	110.90317E+0
163.89389E+3	250.00000E+3	144.31009E-12	-45.262253E+0
164.87236E+3	250.00000E+3	145.43249E-12	-48.420223E+0
165.85083E+3	250.00000E+3	41.320860E-12	-20.338169E+0
166.82930E+3	250.00000E+3	120.43358E-12	-67.248680E+0
167.80777E+3	250.00000E+3	260.30242E-12	-132.20470E+0
168.78623E+3	250.00000E+3	620.46018E-12	63.117104E+0
169.76470E+3	250.00000E+3	828.58748E-12	106.87096E+0
170.74317E+3	250.00000E+3	2.8641283E-9	107.69080E+0
171.72164E+3	250.00000E+3	526.86633E-12	-45.494976E+0
172.70011E+3	250.00000E+3	571.00330E-12	-56.847431E+0
173.67858E+3	250.00000E+3	317.61629E-12	-103.39558E+0
174.65705E+3	250.00000E+3	188.71564E-12	-90.915489E+0
175.63552E+3	250.00000E+3	261.88404E-12	-94.955460E+0
176.61398E+3	250.00000E+3	187.17483E-12	-125.18060E+0
177.59245E+3	250.00000E+3	185.62037E-12	-126.32587E+0
178.57092E+3	250.00000E+3	191.87690E-12	-131.12282E+0
179.54939E+3	250.00000E+3	252.09984E-12	-145.35939E+0
180.52786E+3	250.00000E+3	299.59960E-12	-75.652107E+0
181.50633E+3	250.00000E+3	239.29819E-12	143.01491E+0
182.48480E+3	250.00000E+3	143.60760E-12	141.03119E+0
183.46327E+3	250.00000E+3	164.19421E-12	143.96892E+0
184.44173E+3	250.00000E+3	228.82844E-12	133.31396E+0
185.42020E+3	250.00000E+3	263.42289E-12	93.901703E+0
186.39867E+3	250.00000E+3	228.55477E-12	67.824677E+0
187.37714E+3	250.00000E+3	199.80201E-12	45.252754E+0
188.35561E+3	250.00000E+3	156.23622E-12	8.1399546E+0
189.33408E+3	250.00000E+3	99.524923E-12	-3.7412312E+0
190.31255E+3	250.00000E+3	65.747373E-12	-18.864429E+0
191.29102E+3	250.00000E+3	59.284619E-12	-9.3680239E+0
192.26948E+3	250.00000E+3	56.119338E-12	-23.110846E+0
193.24795E+3	250.00000E+3	52.434931E-12	-42.989700E+0
194.22642E+3	250.00000E+3	36.682872E-12	-57.820316E+0
195.20489E+3	250.00000E+3	29.643041E-12	-49.926750E+0
196.18336E+3	250.00000E+3	26.224571E-12	-59.027744E+0
197.16183E+3	250.00000E+3	24.905246E-12	-68.623085E+0
198.14030E+3	250.00000E+3	22.034667E-12	-43.603485E+0
199.11877E+3	250.00000E+3	27.001120E-12	-74.314445E+0
200.09723E+3	250.00000E+3	19.489644E-12	-34.938293E+0
201.07570E+3	250.00000E+3	23.731808E-12	-78.111755E+0
202.05417E+3	250.00000E+3	21.596270E-12	-36.308853E+0
203.03264E+3	250.00000E+3	19.820210E-12	-6.0669818E+0
204.01111E+3	250.00000E+3	26.328150E-12	91.797470E+0
204.98958E+3	250.00000E+3	34.854699E-12	46.936089E+0
205.96805E+3	250.00000E+3	37.409988E-12	-26.683113E+0
206.94652E+3	250.00000E+3	33.984857E-12	-59.807400E+0
207.92498E+3	250.00000E+3	34.785660E-12	-91.592644E+0
208.90345E+3	250.00000E+3	33.887060E-12	-110.77869E+0
209.88192E+3	250.00000E+3	32.169371E-12	-106.65961E+0
210.86039E+3	250.00000E+3	29.277473E-12	-44.420883E+0
211.83886E+3	250.00000E+3	26.335586E-12	6.5065742E+0
212.81733E+3	250.00000E+3	24.664460E-12	65.135384E+0
213.79580E+3	250.00000E+3	20.475278E-12	60.606350E+0
214.77427E+3	250.00000E+3	17.828581E-12	21.721514E+0
215.75273E+3	250.00000E+3	18.881166E-12	38.391525E+0
216.73120E+3	250.00000E+3	17.995752E-12	24.267109E+0
217.70967E+3	250.00000E+3	18.256488E-12	32.354927E+0
218.68814E+3	250.00000E+3	17.573042E-12	1.7424217E+0
219.66661E+3	250.00000E+3	17.869935E-12	-16.664198E+0
220.64508E+3	250.00000E+3	17.729471E-12	-1.8113730E+0
221.62355E+3	250.00000E+3	17.218876E-12	-5.0450335E+0
222.60202E+3	250.00000E+3	18.073034E-12	-35.109787E+0
223.58048E+3	250.00000E+3	19.425305E-12	-34.815800E+0
224.55895E+3	250.00000E+3	22.192258E-12	-41.315529E+0
225.53742E+3	250.00000E+3	23.435868E-12	6.1323638E+0
226.51589E+3	250.00000E+3	26.776963E-12	62.023430E+0
227.49436E+3	250.00000E+3	29.553304E-12	105.29343E+0
228.47283E+3	250.00000E+3	22.468884E-12	59.648956E+0
229.45130E+3	250.00000E+3	18.256384E-12	34.027809E+0
230.42977E+3	250.00000E+3	19.268549E-12	19.489746E+0
231.40823E+3	250.00000E+3	24.650644E-12	85.323738E+0
232.38670E+3	250.00000E+3	24.810223E-12	62.355774E+0
233.36517E+3	250.00000E+3	22.452195E-12	2.6908531E+0
234.34364E+3	250.00000E+3	17.957582E-12	-27.976788E+0
235.32211E+3	250.00000E+3	17.286879E-12	-21.663126E-3
236.30058E+3	250.00000E+3	17.153225E-12	-1.3184867E+0
237.27905E+3	250.00000E+3	18.147536E-12	3.0299973E+0
238.25752E+3	250.00000E+3	17.561582E-12	22.552105E+0
239.23598E+3	250.00000E+3	18.713349E-12	38.940048E+0
240.21445E+3	250.00000E+3	18.067867E-12	-4.3189249E+0
241.19292E+3	250.00000E+3	19.948201E-12	-56.089127E+0
242.17139E+3	250.00000E+3	19.109490E-12	16.244066E+0
243.14986E+3	250.00000E+3	18.297103E-12	22.770981E+0
244.12833E+3	250.00000E+3	19.540345E-12	45.624531E+0
245.10680E+3	250.00000E+3	19.046270E-12	39.708454E+0
246.08527E+3	250.00000E+3	19.769662E-12	49.973049E+0
247.06373E+3	250.00000E+3	19.852514E-12	41.354145E+0
248.04220E+3	250.00000E+3	18.038982E-12	-14.669950E+0
249.02067E+3	250.00000E+3	17.957568E-12	25.725939E+0
249.99914E+3	250.00000E+3	17.904291E-12	23.753754E+0
